X590
Integration time [ms]: 40000.000
Averaging Nr. [scans]: 1
Smoothing Nr. [pixels]: 0
Data measured with spectrometer [name]: 0604028U1
Wave   ;Sample   ;Dark     ;Reference;Scope
[nm]   ;[counts] ;[counts] ;[counts] 

 542.89;12432.000;    0.000;    0.000
 543.05;14968.000;    0.000;    0.000
 543.21;20988.000;    0.000;    0.000
 543.37;18916.000;    0.000;    0.000
 543.54;15584.000;    0.000;    0.000
 543.70;14684.000;    0.000;    0.000
 543.86;13308.000;    0.000;    0.000
 544.03;17872.000;    0.000;    0.000
 544.19;17068.000;    0.000;    0.000
 544.35;17124.000;    0.000;    0.000
 544.51;18952.000;    0.000;    0.000
 544.68;21536.000;    0.000;    0.000
 544.84;13020.000;    0.000;    0.000
 545.00;15944.000;    0.000;    0.000
 545.17;21944.000;    0.000;    0.000
 545.33;15892.000;    0.000;    0.000
 545.49; 9964.000;    0.000;    0.000
 545.65;16456.000;    0.000;    0.000
 545.82;15536.000;    0.000;    0.000
 545.98;19252.000;    0.000;    0.000
 546.14;13908.000;    0.000;    0.000
 546.31;12920.000;    0.000;    0.000
 546.47;20968.000;    0.000;    0.000
 546.63;16836.000;    0.000;    0.000
 546.79;14480.000;    0.000;    0.000
 546.96;14952.000;    0.000;    0.000
 547.12;15780.000;    0.000;    0.000
 547.28;18432.000;    0.000;    0.000
 547.44; 9284.000;    0.000;    0.000
 547.61;11820.000;    0.000;    0.000
 547.77;12060.000;    0.000;    0.000
 547.93;20036.000;    0.000;    0.000
 548.10;15788.000;    0.000;    0.000
 548.26;14360.000;    0.000;    0.000
 548.42;17384.000;    0.000;    0.000
 548.58;21900.000;    0.000;    0.000
 548.75;19228.000;    0.000;    0.000
 548.91;12688.000;    0.000;    0.000
 549.07;14888.000;    0.000;    0.000
 549.23;23328.000;    0.000;    0.000
 549.40;18612.000;    0.000;    0.000
 549.56;16836.000;    0.000;    0.000
 549.72;13280.000;    0.000;    0.000
 549.88;18724.000;    0.000;    0.000
 550.05;15636.000;    0.000;    0.000
 550.21;13852.000;    0.000;    0.000
 550.37;14248.000;    0.000;    0.000
 550.53;12712.000;    0.000;    0.000
 550.70;12264.000;    0.000;    0.000
 550.86;17540.000;    0.000;    0.000
 551.02;18768.000;    0.000;    0.000
 551.19;17896.000;    0.000;    0.000
 551.35;12240.000;    0.000;    0.000
 551.51;13668.000;    0.000;    0.000
 551.67;11380.000;    0.000;    0.000
 551.84;14928.000;    0.000;    0.000
 552.00;20476.000;    0.000;    0.000
 552.16;17716.000;    0.000;    0.000
 552.32;11268.000;    0.000;    0.000
 552.49;17904.000;    0.000;    0.000
 552.65;12552.000;    0.000;    0.000
 552.81;16560.000;    0.000;    0.000
 552.97;11208.000;    0.000;    0.000
 553.14;16132.000;    0.000;    0.000
 553.30;14036.000;    0.000;    0.000
 553.46;13224.000;    0.000;    0.000
 553.62;17556.000;    0.000;    0.000
 553.79;17700.000;    0.000;    0.000
 553.95;18356.000;    0.000;    0.000
 554.11;19464.000;    0.000;    0.000
 554.27;20444.000;    0.000;    0.000
 554.43;19136.000;    0.000;    0.000
 554.60;15224.000;    0.000;    0.000
 554.76;19428.000;    0.000;    0.000
 554.92;12016.000;    0.000;    0.000
 555.08;19876.000;    0.000;    0.000
 555.25;15768.000;    0.000;    0.000
 555.41;15888.000;    0.000;    0.000
 555.57;13728.000;    0.000;    0.000
 555.73;18188.000;    0.000;    0.000
 555.90;12888.000;    0.000;    0.000
 556.06; 7988.000;    0.000;    0.000
 556.22;19496.000;    0.000;    0.000
 556.38;17344.000;    0.000;    0.000
 556.55;12620.000;    0.000;    0.000
 556.71;16916.000;    0.000;    0.000
 556.87;15588.000;    0.000;    0.000
 557.03;14620.000;    0.000;    0.000
 557.19; 8824.000;    0.000;    0.000
 557.36;14620.000;    0.000;    0.000
 557.52;16120.000;    0.000;    0.000
 557.68;19044.000;    0.000;    0.000
 557.84;11388.000;    0.000;    0.000
 558.01;12392.000;    0.000;    0.000
 558.17;13672.000;    0.000;    0.000
 558.33;17712.000;    0.000;    0.000
 558.49;19132.000;    0.000;    0.000
 558.65;14628.000;    0.000;    0.000
 558.82;18220.000;    0.000;    0.000
 558.98;16040.000;    0.000;    0.000
 559.14;19640.000;    0.000;    0.000
 559.30;11852.000;    0.000;    0.000
 559.47;17180.000;    0.000;    0.000
 559.63;16476.000;    0.000;    0.000
 559.79;17240.000;    0.000;    0.000
 559.95;18220.000;    0.000;    0.000
 560.11;17460.000;    0.000;    0.000
 560.28;22396.000;    0.000;    0.000
 560.44;13876.000;    0.000;    0.000
 560.60;19508.000;    0.000;    0.000
 560.76;16504.000;    0.000;    0.000
 560.93;15832.000;    0.000;    0.000
 561.09;11680.000;    0.000;    0.000
 561.25; 9264.000;    0.000;    0.000
 561.41;13084.000;    0.000;    0.000
 561.57;22324.000;    0.000;    0.000
 561.74;11980.000;    0.000;    0.000
 561.90;16260.000;    0.000;    0.000
 562.06;18892.000;    0.000;    0.000
 562.22;12856.000;    0.000;    0.000
 562.38;13704.000;    0.000;    0.000
 562.55;10540.000;    0.000;    0.000
 562.71;16496.000;    0.000;    0.000
 562.87;13388.000;    0.000;    0.000
 563.03;10540.000;    0.000;    0.000
 563.19;13456.000;    0.000;    0.000
 563.36;16668.000;    0.000;    0.000
 563.52;15088.000;    0.000;    0.000
 563.68;18292.000;    0.000;    0.000
 563.84;10676.000;    0.000;    0.000
 564.00;22404.000;    0.000;    0.000
 564.17;15416.000;    0.000;    0.000
 564.33;13256.000;    0.000;    0.000
 564.49;14056.000;    0.000;    0.000
 564.65;11680.000;    0.000;    0.000
 564.81;14056.000;    0.000;    0.000
 564.98;14436.000;    0.000;    0.000
 565.14;10784.000;    0.000;    0.000
 565.30;15420.000;    0.000;    0.000
 565.46;17072.000;    0.000;    0.000
 565.62;14084.000;    0.000;    0.000
 565.79;13192.000;    0.000;    0.000
 565.95;16684.000;    0.000;    0.000
 566.11;20416.000;    0.000;    0.000
 566.27;17196.000;    0.000;    0.000
 566.43;18436.000;    0.000;    0.000
 566.59;12324.000;    0.000;    0.000
 566.76;19260.000;    0.000;    0.000
 566.92;11664.000;    0.000;    0.000
 567.08;12180.000;    0.000;    0.000
 567.24;18720.000;    0.000;    0.000
 567.40;15980.000;    0.000;    0.000
 567.57;13600.000;    0.000;    0.000
 567.73;29948.000;    0.000;    0.000
 567.89;15716.000;    0.000;    0.000
 568.05;11956.000;    0.000;    0.000
 568.21;18516.000;    0.000;    0.000
 568.37; 8084.000;    0.000;    0.000
 568.54;12020.000;    0.000;    0.000
 568.70;14000.000;    0.000;    0.000
 568.86;15844.000;    0.000;    0.000
 569.02;12732.000;    0.000;    0.000
 569.18;15712.000;    0.000;    0.000
 569.34;10080.000;    0.000;    0.000
 569.51;14552.000;    0.000;    0.000
 569.67;19728.000;    0.000;    0.000
 569.83;13428.000;    0.000;    0.000
 569.99;16912.000;    0.000;    0.000
 570.15;14920.000;    0.000;    0.000
 570.31;12776.000;    0.000;    0.000
 570.48; 9844.000;    0.000;    0.000
 570.64;15092.000;    0.000;    0.000
 570.80;11092.000;    0.000;    0.000
 570.96;12048.000;    0.000;    0.000
 571.12;16652.000;    0.000;    0.000
 571.28;24056.000;    0.000;    0.000
 571.45; 8720.000;    0.000;    0.000
 571.61;15064.000;    0.000;    0.000
 571.77;14468.000;    0.000;    0.000
 571.93;22124.000;    0.000;    0.000
 572.09;10984.000;    0.000;    0.000
 572.25; 9800.000;    0.000;    0.000
 572.42;17872.000;    0.000;    0.000
 572.58;10192.000;    0.000;    0.000
 572.74; 9848.000;    0.000;    0.000
 572.90;18520.000;    0.000;    0.000
 573.06;11540.000;    0.000;    0.000
 573.22;12588.000;    0.000;    0.000
 573.39;15756.000;    0.000;    0.000
 573.55;11840.000;    0.000;    0.000
 573.71;14300.000;    0.000;    0.000
 573.87;18016.000;    0.000;    0.000
 574.03; 9676.000;    0.000;    0.000
 574.19;12632.000;    0.000;    0.000
 574.35;11224.000;    0.000;    0.000
 574.52;10796.000;    0.000;    0.000
 574.68;17720.000;    0.000;    0.000
 574.84;17952.000;    0.000;    0.000
 575.00;12976.000;    0.000;    0.000
 575.16;13188.000;    0.000;    0.000
 575.32; 8360.000;    0.000;    0.000
 575.48;10288.000;    0.000;    0.000
 575.65;12856.000;    0.000;    0.000
 575.81;13740.000;    0.000;    0.000
 575.97;10256.000;    0.000;    0.000
 576.13;22496.000;    0.000;    0.000
 576.29;10648.000;    0.000;    0.000
 576.45;27044.000;    0.000;    0.000
 576.61;11708.000;    0.000;    0.000
 576.78;17124.000;    0.000;    0.000
 576.94;15248.000;    0.000;    0.000
 577.10;13432.000;    0.000;    0.000
 577.26;15452.000;    0.000;    0.000
 577.42;20120.000;    0.000;    0.000
 577.58;13136.000;    0.000;    0.000
 577.74;14336.000;    0.000;    0.000
 577.90;12848.000;    0.000;    0.000
 578.07;15100.000;    0.000;    0.000
 578.23;16608.000;    0.000;    0.000
 578.39;12480.000;    0.000;    0.000
 578.55;12320.000;    0.000;    0.000
 578.71;14988.000;    0.000;    0.000
 578.87;15232.000;    0.000;    0.000
 579.03;13284.000;    0.000;    0.000
 579.20;11692.000;    0.000;    0.000
 579.36;16508.000;    0.000;    0.000
 579.52;10984.000;    0.000;    0.000
 579.68;17436.000;    0.000;    0.000
 579.84; 9852.000;    0.000;    0.000
 580.00;12056.000;    0.000;    0.000
 580.16;10788.000;    0.000;    0.000
 580.32;17084.000;    0.000;    0.000
 580.48; 7164.000;    0.000;    0.000
 580.65;21432.000;    0.000;    0.000
 580.81;10524.000;    0.000;    0.000
 580.97;13544.000;    0.000;    0.000
 581.13;14568.000;    0.000;    0.000
 581.29; 9876.000;    0.000;    0.000
 581.45;10092.000;    0.000;    0.000
 581.61;13148.000;    0.000;    0.000
 581.77;12132.000;    0.000;    0.000
 581.94;11656.000;    0.000;    0.000
 582.10;20092.000;    0.000;    0.000
 582.26;21176.000;    0.000;    0.000
 582.42; 9724.000;    0.000;    0.000
 582.58;12340.000;    0.000;    0.000
 582.74;13316.000;    0.000;    0.000
 582.90;12796.000;    0.000;    0.000
 583.06;12712.000;    0.000;    0.000
 583.22;13784.000;    0.000;    0.000
 583.38;17392.000;    0.000;    0.000
 583.55;12712.000;    0.000;    0.000
 583.71;13972.000;    0.000;    0.000
 583.87;18984.000;    0.000;    0.000
 584.03;15548.000;    0.000;    0.000
 584.19;15388.000;    0.000;    0.000
 584.35; 8800.000;    0.000;    0.000
 584.51;16216.000;    0.000;    0.000
 584.67;14464.000;    0.000;    0.000
 584.83;13424.000;    0.000;    0.000
 584.99;12104.000;    0.000;    0.000
 585.16;15344.000;    0.000;    0.000
 585.32;22148.000;    0.000;    0.000
 585.48;14572.000;    0.000;    0.000
 585.64;15124.000;    0.000;    0.000
 585.80;12164.000;    0.000;    0.000
 585.96;19132.000;    0.000;    0.000
 586.12;14552.000;    0.000;    0.000
 586.28;20568.000;    0.000;    0.000
 586.44;10548.000;    0.000;    0.000
 586.60;19404.000;    0.000;    0.000
 586.77;11536.000;    0.000;    0.000
 586.93;17528.000;    0.000;    0.000
 587.09;12808.000;    0.000;    0.000
 587.25;16160.000;    0.000;    0.000
 587.41;14536.000;    0.000;    0.000
 587.57;20016.000;    0.000;    0.000
 587.73;13944.000;    0.000;    0.000
 587.89;18256.000;    0.000;    0.000
 588.05;22740.000;    0.000;    0.000
 588.21;11832.000;    0.000;    0.000
 588.37;17820.000;    0.000;    0.000
 588.53;19776.000;    0.000;    0.000
 588.70;17424.000;    0.000;    0.000
 588.86;17104.000;    0.000;    0.000
 589.02;15720.000;    0.000;    0.000
 589.18;14632.000;    0.000;    0.000
 589.34;20284.000;    0.000;    0.000
 589.50;13100.000;    0.000;    0.000
 589.66;20608.000;    0.000;    0.000
 589.82;18568.000;    0.000;    0.000
 589.98;17956.000;    0.000;    0.000
 590.14;14452.000;    0.000;    0.000
 590.30;10976.000;    0.000;    0.000
 590.46;16656.000;    0.000;    0.000
 590.62;19188.000;    0.000;    0.000
 590.78;11464.000;    0.000;    0.000
 590.95;17892.000;    0.000;    0.000
 591.11;18772.000;    0.000;    0.000
 591.27;15496.000;    0.000;    0.000
 591.43;15852.000;    0.000;    0.000
 591.59;21016.000;    0.000;    0.000
 591.75;20748.000;    0.000;    0.000
 591.91;17272.000;    0.000;    0.000
 592.07;20248.000;    0.000;    0.000
 592.23;19600.000;    0.000;    0.000
 592.39;19792.000;    0.000;    0.000
 592.55;16596.000;    0.000;    0.000
 592.71;16000.000;    0.000;    0.000
 592.87;15556.000;    0.000;    0.000
 593.03;15532.000;    0.000;    0.000
 593.19;15660.000;    0.000;    0.000
 593.35;16212.000;    0.000;    0.000
 593.52;18964.000;    0.000;    0.000
 593.68;14828.000;    0.000;    0.000
 593.84;15980.000;    0.000;    0.000
 594.00;16448.000;    0.000;    0.000
 594.16;19244.000;    0.000;    0.000
 594.32;15008.000;    0.000;    0.000
 594.48;18188.000;    0.000;    0.000
 594.64;16152.000;    0.000;    0.000
 594.80;14760.000;    0.000;    0.000
 594.96;12460.000;    0.000;    0.000
 595.12;17076.000;    0.000;    0.000
 595.28;11936.000;    0.000;    0.000
 595.44;15428.000;    0.000;    0.000
 595.60;10308.000;    0.000;    0.000
 595.76; 9900.000;    0.000;    0.000
 595.92;14476.000;    0.000;    0.000
 596.08; 9544.000;    0.000;    0.000
 596.24;12548.000;    0.000;    0.000
 596.40;17440.000;    0.000;    0.000
 596.56;12240.000;    0.000;    0.000
 596.73;12272.000;    0.000;    0.000
 596.89;18380.000;    0.000;    0.000
 597.05;15604.000;    0.000;    0.000
 597.21;12888.000;    0.000;    0.000
 597.37;15100.000;    0.000;    0.000
 597.53;13696.000;    0.000;    0.000
 597.69;12512.000;    0.000;    0.000
 597.85;14468.000;    0.000;    0.000
 598.01;11940.000;    0.000;    0.000
 598.17;12724.000;    0.000;    0.000
 598.33;13148.000;    0.000;    0.000
 598.49;15212.000;    0.000;    0.000
 598.65;10212.000;    0.000;    0.000
 598.81;11604.000;    0.000;    0.000
 598.97;10520.000;    0.000;    0.000
 599.13;13016.000;    0.000;    0.000
 599.29;14588.000;    0.000;    0.000
 599.45;10308.000;    0.000;    0.000
 599.61;14980.000;    0.000;    0.000
 599.77;11672.000;    0.000;    0.000
 599.93;12952.000;    0.000;    0.000
 600.09;14108.000;    0.000;    0.000
 600.25;14256.000;    0.000;    0.000
 600.41; 6824.000;    0.000;    0.000
 600.57;12036.000;    0.000;    0.000
 600.73;10908.000;    0.000;    0.000
 600.89;17352.000;    0.000;    0.000
 601.05;12080.000;    0.000;    0.000
 601.21;11264.000;    0.000;    0.000
 601.37;11536.000;    0.000;    0.000
 601.53;12768.000;    0.000;    0.000
 601.69;15212.000;    0.000;    0.000
 601.85; 9628.000;    0.000;    0.000
 602.01;13824.000;    0.000;    0.000
 602.17;15544.000;    0.000;    0.000
 602.33;11236.000;    0.000;    0.000
 602.49;10896.000;    0.000;    0.000
 602.65;14308.000;    0.000;    0.000
 602.81;18476.000;    0.000;    0.000
 602.97; 9476.000;    0.000;    0.000
 603.13;10920.000;    0.000;    0.000
 603.29;14640.000;    0.000;    0.000
 603.45;16792.000;    0.000;    0.000
 603.61;16532.000;    0.000;    0.000
 603.78;14892.000;    0.000;    0.000
 603.94;17132.000;    0.000;    0.000
 604.10;14404.000;    0.000;    0.000
 604.26;17632.000;    0.000;    0.000
 604.42;19252.000;    0.000;    0.000
 604.58; 9716.000;    0.000;    0.000
 604.74;13716.000;    0.000;    0.000
 604.90; 6828.000;    0.000;    0.000
 605.06; 8616.000;    0.000;    0.000
 605.22;14604.000;    0.000;    0.000
 605.38; 8220.000;    0.000;    0.000
 605.54;10320.000;    0.000;    0.000
 605.70; 9364.000;    0.000;    0.000
 605.86;11696.000;    0.000;    0.000
 606.01;13232.000;    0.000;    0.000
 606.17;11948.000;    0.000;    0.000
 606.33;11264.000;    0.000;    0.000
 606.49;14340.000;    0.000;    0.000
 606.65;14244.000;    0.000;    0.000
 606.81; 8688.000;    0.000;    0.000
 606.97;11936.000;    0.000;    0.000
 607.13; 9372.000;    0.000;    0.000
 607.29;12824.000;    0.000;    0.000
 607.45;14412.000;    0.000;    0.000
 607.61;14220.000;    0.000;    0.000
 607.77;15168.000;    0.000;    0.000
 607.93;17256.000;    0.000;    0.000
 608.09;12548.000;    0.000;    0.000
 608.25;11336.000;    0.000;    0.000
 608.41;14864.000;    0.000;    0.000
 608.57;15928.000;    0.000;    0.000
 608.73;14000.000;    0.000;    0.000
 608.89;13736.000;    0.000;    0.000
 609.05; 9848.000;    0.000;    0.000
 609.21;17168.000;    0.000;    0.000
 609.37;12936.000;    0.000;    0.000
 609.53;10204.000;    0.000;    0.000
 609.69;13564.000;    0.000;    0.000
 609.85;15352.000;    0.000;    0.000
 610.01;10344.000;    0.000;    0.000
 610.17;12392.000;    0.000;    0.000
 610.33; 9184.000;    0.000;    0.000
 610.49;13672.000;    0.000;    0.000
 610.65;12040.000;    0.000;    0.000
 610.81; 9140.000;    0.000;    0.000
 610.97;12624.000;    0.000;    0.000
 611.13;12580.000;    0.000;    0.000
 611.29;15464.000;    0.000;    0.000
 611.45;24456.000;    0.000;    0.000
 611.61;22420.000;    0.000;    0.000
 611.77;15616.000;    0.000;    0.000
 611.93; 9608.000;    0.000;    0.000
 612.09; 9488.000;    0.000;    0.000
 612.25; 9420.000;    0.000;    0.000
 612.41;17600.000;    0.000;    0.000
 612.57;14436.000;    0.000;    0.000
 612.73;12512.000;    0.000;    0.000
 612.89;14024.000;    0.000;    0.000
 613.04; 9032.000;    0.000;    0.000
 613.20;16032.000;    0.000;    0.000
 613.36; 9968.000;    0.000;    0.000
 613.52;12952.000;    0.000;    0.000
 613.68;10748.000;    0.000;    0.000
 613.84;11324.000;    0.000;    0.000
 614.00;15052.000;    0.000;    0.000
 614.16;14808.000;    0.000;    0.000
 614.32;13324.000;    0.000;    0.000
 614.48;19908.000;    0.000;    0.000
 614.64;18312.000;    0.000;    0.000
 614.80;13456.000;    0.000;    0.000
 614.96;14512.000;    0.000;    0.000
 615.12; 9132.000;    0.000;    0.000
 615.28;15672.000;    0.000;    0.000
 615.44;13328.000;    0.000;    0.000
 615.60;21860.000;    0.000;    0.000
 615.76;16064.000;    0.000;    0.000
 615.92;12808.000;    0.000;    0.000
 616.08;16200.000;    0.000;    0.000
 616.23;15400.000;    0.000;    0.000
 616.39;15532.000;    0.000;    0.000
 616.55;14292.000;    0.000;    0.000
 616.71;16276.000;    0.000;    0.000
 616.87;17428.000;    0.000;    0.000
 617.03;11752.000;    0.000;    0.000
 617.19; 8580.000;    0.000;    0.000
 617.35;18696.000;    0.000;    0.000
 617.51;19116.000;    0.000;    0.000
 617.67;12060.000;    0.000;    0.000
 617.83;10972.000;    0.000;    0.000
 617.99;10932.000;    0.000;    0.000
 618.15;17556.000;    0.000;    0.000
 618.31; 8580.000;    0.000;    0.000
 618.47; 8744.000;    0.000;    0.000
 618.63;20132.000;    0.000;    0.000
 618.78;18524.000;    0.000;    0.000
 618.94;15744.000;    0.000;    0.000
 619.10;13836.000;    0.000;    0.000
 619.26;11828.000;    0.000;    0.000
 619.42;13088.000;    0.000;    0.000
 619.58;12368.000;    0.000;    0.000
 619.74;14384.000;    0.000;    0.000
 619.90;16008.000;    0.000;    0.000
 620.06;11944.000;    0.000;    0.000
 620.22;12068.000;    0.000;    0.000
 620.38;11416.000;    0.000;    0.000
 620.54;13216.000;    0.000;    0.000
 620.70;13912.000;    0.000;    0.000
 620.85;12992.000;    0.000;    0.000
 621.01;15408.000;    0.000;    0.000
 621.17;12972.000;    0.000;    0.000
 621.33;13208.000;    0.000;    0.000
 621.49; 7576.000;    0.000;    0.000
 621.65;12340.000;    0.000;    0.000
 621.81;14504.000;    0.000;    0.000
 621.97;12612.000;    0.000;    0.000
 622.13;10992.000;    0.000;    0.000
 622.29; 8028.000;    0.000;    0.000
 622.45;15360.000;    0.000;    0.000
 622.61;15684.000;    0.000;    0.000
 622.76;12476.000;    0.000;    0.000
 622.92;12708.000;    0.000;    0.000
 623.08; 7024.000;    0.000;    0.000
 623.24; 9324.000;    0.000;    0.000
 623.40;14624.000;    0.000;    0.000
 623.56; 7316.000;    0.000;    0.000
 623.72;10620.000;    0.000;    0.000
 623.88;19636.000;    0.000;    0.000
 624.04; 8120.000;    0.000;    0.000
 624.20;15748.000;    0.000;    0.000
 624.36;21192.000;    0.000;    0.000
 624.51;21720.000;    0.000;    0.000
 624.67;13580.000;    0.000;    0.000
 624.83;10488.000;    0.000;    0.000
 624.99;10140.000;    0.000;    0.000
 625.15;11984.000;    0.000;    0.000
 625.31;10336.000;    0.000;    0.000
 625.47;17384.000;    0.000;    0.000
 625.63;19276.000;    0.000;    0.000
 625.79;16580.000;    0.000;    0.000
 625.95;17980.000;    0.000;    0.000
 626.10;10052.000;    0.000;    0.000
 626.26;14520.000;    0.000;    0.000
 626.42;10052.000;    0.000;    0.000
 626.58;14492.000;    0.000;    0.000
 626.74;16456.000;    0.000;    0.000
 626.90;14536.000;    0.000;    0.000
 627.06;22236.000;    0.000;    0.000
 627.22;16212.000;    0.000;    0.000
 627.38;10912.000;    0.000;    0.000
 627.53;18932.000;    0.000;    0.000
 627.69;13804.000;    0.000;    0.000
 627.85; 9340.000;    0.000;    0.000
 628.01;10852.000;    0.000;    0.000
 628.17;14712.000;    0.000;    0.000
 628.33;12724.000;    0.000;    0.000
 628.49; 6716.000;    0.000;    0.000
 628.65;10152.000;    0.000;    0.000
 628.80;14228.000;    0.000;    0.000
 628.96;10172.000;    0.000;    0.000
 629.12;17944.000;    0.000;    0.000
 629.28;13400.000;    0.000;    0.000
 629.44;12508.000;    0.000;    0.000
 629.60;13516.000;    0.000;    0.000
 629.76;12016.000;    0.000;    0.000
 629.92;10440.000;    0.000;    0.000
 630.07;15632.000;    0.000;    0.000
 630.23;14384.000;    0.000;    0.000
 630.39;10200.000;    0.000;    0.000
 630.55;12808.000;    0.000;    0.000
 630.71;13512.000;    0.000;    0.000
 630.87;10616.000;    0.000;    0.000
 631.03; 8092.000;    0.000;    0.000
 631.19;20388.000;    0.000;    0.000
 631.34;12212.000;    0.000;    0.000
 631.50;13388.000;    0.000;    0.000
 631.66; 9148.000;    0.000;    0.000
 631.82;13628.000;    0.000;    0.000
 631.98; 9896.000;    0.000;    0.000
 632.14;19836.000;    0.000;    0.000
 632.30;14876.000;    0.000;    0.000
 632.45;13340.000;    0.000;    0.000
 632.61;13548.000;    0.000;    0.000
 632.77;19780.000;    0.000;    0.000
 632.93;10316.000;    0.000;    0.000
 633.09;12516.000;    0.000;    0.000
 633.25;14648.000;    0.000;    0.000
 633.41;15332.000;    0.000;    0.000
 633.56;12168.000;    0.000;    0.000
 633.72; 8800.000;    0.000;    0.000
 633.88;12876.000;    0.000;    0.000
 634.04;15720.000;    0.000;    0.000
 634.20;11020.000;    0.000;    0.000
 634.36; 7232.000;    0.000;    0.000
 634.52;11068.000;    0.000;    0.000
 634.67;12036.000;    0.000;    0.000
 634.83; 8792.000;    0.000;    0.000
 634.99;14440.000;    0.000;    0.000
 635.15;18020.000;    0.000;    0.000
 635.31;12192.000;    0.000;    0.000
 635.47;11832.000;    0.000;    0.000
 635.62; 9196.000;    0.000;    0.000
 635.78;14536.000;    0.000;    0.000
 635.94; 9468.000;    0.000;    0.000
 636.10; 7196.000;    0.000;    0.000
 636.26;12436.000;    0.000;    0.000
 636.42;12132.000;    0.000;    0.000
 636.58;12512.000;    0.000;    0.000
 636.73;15500.000;    0.000;    0.000
 636.89;17452.000;    0.000;    0.000
 637.05;12248.000;    0.000;    0.000
 637.21;14860.000;    0.000;    0.000
 637.37; 8920.000;    0.000;    0.000
 637.53;10132.000;    0.000;    0.000
 637.68;14356.000;    0.000;    0.000
 637.84;12264.000;    0.000;    0.000
 638.00;11064.000;    0.000;    0.000
 638.16;19916.000;    0.000;    0.000
 638.32;14944.000;    0.000;    0.000
 638.48;11536.000;    0.000;    0.000
 638.63;10100.000;    0.000;    0.000
 638.79;21220.000;    0.000;    0.000
 638.95;13484.000;    0.000;    0.000
 639.11;11188.000;    0.000;    0.000
 639.27; 9084.000;    0.000;    0.000
 639.43;11736.000;    0.000;    0.000
 639.58;13876.000;    0.000;    0.000
 639.74;16360.000;    0.000;    0.000
 639.90; 8024.000;    0.000;    0.000
 640.06;15012.000;    0.000;    0.000
 640.22;18788.000;    0.000;    0.000
 640.37;14192.000;    0.000;    0.000
 640.53; 5892.000;    0.000;    0.000
 640.69; 9140.000;    0.000;    0.000
 640.85;10928.000;    0.000;    0.000
 641.01;11604.000;    0.000;    0.000
 641.17;11224.000;    0.000;    0.000
 641.32;11656.000;    0.000;    0.000
 641.48;11448.000;    0.000;    0.000
 641.64;12916.000;    0.000;    0.000
 641.80;14640.000;    0.000;    0.000
 641.96; 9560.000;    0.000;    0.000
 642.11;15084.000;    0.000;    0.000
 642.27;17644.000;    0.000;    0.000
 642.43;14700.000;    0.000;    0.000
 642.59;10340.000;    0.000;    0.000
 642.75;11180.000;    0.000;    0.000
 642.90; 8948.000;    0.000;    0.000
 643.06;13964.000;    0.000;    0.000
 643.22;14076.000;    0.000;    0.000
 643.38;13444.000;    0.000;    0.000
 643.54;10372.000;    0.000;    0.000
 643.69;11236.000;    0.000;    0.000
 643.85;11272.000;    0.000;    0.000
 644.01;17408.000;    0.000;    0.000
 644.17; 9772.000;    0.000;    0.000
 644.33; 9492.000;    0.000;    0.000
 644.48;13780.000;    0.000;    0.000
 644.64;15140.000;    0.000;    0.000
 644.80;11284.000;    0.000;    0.000
 644.96;12684.000;    0.000;    0.000
 645.12; 9500.000;    0.000;    0.000
 645.27; 9168.000;    0.000;    0.000
 645.43;14676.000;    0.000;    0.000
 645.59;17456.000;    0.000;    0.000
 645.75;13356.000;    0.000;    0.000
 645.91;12720.000;    0.000;    0.000
 646.06;23036.000;    0.000;    0.000
 646.22;15436.000;    0.000;    0.000
 646.38;17884.000;    0.000;    0.000
 646.54;13800.000;    0.000;    0.000
 646.70; 8976.000;    0.000;    0.000
 646.85; 8308.000;    0.000;    0.000
 647.01;14736.000;    0.000;    0.000
 647.17;15616.000;    0.000;    0.000
 647.33;12060.000;    0.000;    0.000
 647.48;19680.000;    0.000;    0.000
 647.64;10372.000;    0.000;    0.000
 647.80;15404.000;    0.000;    0.000
 647.96;15152.000;    0.000;    0.000
 648.12;13896.000;    0.000;    0.000
 648.27; 9448.000;    0.000;    0.000
 648.43;14788.000;    0.000;    0.000
 648.59;16536.000;    0.000;    0.000
 648.75;10436.000;    0.000;    0.000
 648.90;10640.000;    0.000;    0.000
 649.06;12068.000;    0.000;    0.000
 649.22;13836.000;    0.000;    0.000
 649.38;11640.000;    0.000;    0.000
 649.54; 8844.000;    0.000;    0.000
 649.69; 8556.000;    0.000;    0.000
 649.85;10976.000;    0.000;    0.000
 650.01;13280.000;    0.000;    0.000
 650.17;10508.000;    0.000;    0.000
 650.32;10712.000;    0.000;    0.000
 650.48;11664.000;    0.000;    0.000
 650.64;11428.000;    0.000;    0.000
 650.80;13776.000;    0.000;    0.000
 650.95;17376.000;    0.000;    0.000
 651.11;14648.000;    0.000;    0.000
 651.27;13412.000;    0.000;    0.000
 651.43;16616.000;    0.000;    0.000
 651.58;14256.000;    0.000;    0.000
 651.74;13336.000;    0.000;    0.000
 651.90;11016.000;    0.000;    0.000
 652.06; 9724.000;    0.000;    0.000
 652.22;16624.000;    0.000;    0.000
 652.37;16812.000;    0.000;    0.000
 652.53;10808.000;    0.000;    0.000
 652.69; 8260.000;    0.000;    0.000
 652.85;16472.000;    0.000;    0.000
 653.00;10888.000;    0.000;    0.000
 653.16;11184.000;    0.000;    0.000
 653.32; 9684.000;    0.000;    0.000
 653.48;11484.000;    0.000;    0.000
 653.63;10060.000;    0.000;    0.000
 653.79;14636.000;    0.000;    0.000
 653.95; 6972.000;    0.000;    0.000
 654.11; 7284.000;    0.000;    0.000
 654.26;20268.000;    0.000;    0.000
 654.42; 7040.000;    0.000;    0.000
 654.58; 6676.000;    0.000;    0.000
 654.74;18004.000;    0.000;    0.000
 654.89; 7152.000;    0.000;    0.000
 655.05; 9360.000;    0.000;    0.000
 655.21;11628.000;    0.000;    0.000
 655.36;14488.000;    0.000;    0.000
 655.52;13796.000;    0.000;    0.000
 655.68;12064.000;    0.000;    0.000
 655.84;13032.000;    0.000;    0.000
 655.99;11848.000;    0.000;    0.000
 656.15;10840.000;    0.000;    0.000
 656.31; 9076.000;    0.000;    0.000
 656.47; 8904.000;    0.000;    0.000
 656.62; 8052.000;    0.000;    0.000
 656.78;13188.000;    0.000;    0.000
 656.94; 9216.000;    0.000;    0.000
 657.10; 9264.000;    0.000;    0.000
 657.25;14164.000;    0.000;    0.000
 657.41;10116.000;    0.000;    0.000
 657.57;14628.000;    0.000;    0.000
 657.72; 8468.000;    0.000;    0.000
 657.88;12264.000;    0.000;    0.000
 658.04; 8296.000;    0.000;    0.000
 658.20; 9572.000;    0.000;    0.000
 658.35; 6028.000;    0.000;    0.000
 658.51; 7832.000;    0.000;    0.000
 658.67;12264.000;    0.000;    0.000
 658.83;12368.000;    0.000;    0.000
 658.98;12456.000;    0.000;    0.000
 659.14;11400.000;    0.000;    0.000
 659.30;17956.000;    0.000;    0.000
 659.45;10776.000;    0.000;    0.000
 659.61;16392.000;    0.000;    0.000
 659.77;13556.000;    0.000;    0.000
 659.93;11132.000;    0.000;    0.000
 660.08;14076.000;    0.000;    0.000
 660.24;17832.000;    0.000;    0.000
 660.40;15040.000;    0.000;    0.000
 660.55;10324.000;    0.000;    0.000
 660.71; 9820.000;    0.000;    0.000
 660.87; 8280.000;    0.000;    0.000
 661.03;12384.000;    0.000;    0.000
 661.18;10652.000;    0.000;    0.000
 661.34; 9244.000;    0.000;    0.000
 661.50; 8884.000;    0.000;    0.000
 661.65; 8148.000;    0.000;    0.000
 661.81;13244.000;    0.000;    0.000
 661.97;13112.000;    0.000;    0.000
 662.13;14920.000;    0.000;    0.000
 662.28;14852.000;    0.000;    0.000
 662.44;17612.000;    0.000;    0.000
 662.60;11216.000;    0.000;    0.000
 662.75; 9188.000;    0.000;    0.000
 662.91;19700.000;    0.000;    0.000
 663.07;10288.000;    0.000;    0.000
 663.22;11956.000;    0.000;    0.000
 663.38;12816.000;    0.000;    0.000
 663.54;16196.000;    0.000;    0.000
 663.69; 9900.000;    0.000;    0.000
 663.85; 8408.000;    0.000;    0.000
 664.01;15096.000;    0.000;    0.000
 664.17; 8572.000;    0.000;    0.000
 664.32;10200.000;    0.000;    0.000
 664.48; 9820.000;    0.000;    0.000
 664.64;13444.000;    0.000;    0.000
 664.79;18024.000;    0.000;    0.000
 664.95; 8376.000;    0.000;    0.000
 665.11;10684.000;    0.000;    0.000
 665.26;15220.000;    0.000;    0.000
 665.42;11636.000;    0.000;    0.000
 665.58;17616.000;    0.000;    0.000
 665.73; 9520.000;    0.000;    0.000
 665.89;12096.000;    0.000;    0.000
 666.05; 8432.000;    0.000;    0.000
 666.21;10060.000;    0.000;    0.000
 666.36; 8508.000;    0.000;    0.000
 666.52; 9172.000;    0.000;    0.000
 666.68;15148.000;    0.000;    0.000
 666.83;11656.000;    0.000;    0.000
 666.99; 7148.000;    0.000;    0.000
 667.15;11956.000;    0.000;    0.000
 667.30;16548.000;    0.000;    0.000
 667.46;11996.000;    0.000;    0.000
 667.62;12052.000;    0.000;    0.000
 667.77; 8860.000;    0.000;    0.000
 667.93;11816.000;    0.000;    0.000
 668.09;19728.000;    0.000;    0.000
 668.24; 6500.000;    0.000;    0.000
 668.40; 9584.000;    0.000;    0.000
 668.56;15552.000;    0.000;    0.000
 668.71;12804.000;    0.000;    0.000
 668.87; 7792.000;    0.000;    0.000
 669.03;15756.000;    0.000;    0.000
 669.18;12380.000;    0.000;    0.000
 669.34;10932.000;    0.000;    0.000
 669.50; 7188.000;    0.000;    0.000
 669.65; 6900.000;    0.000;    0.000
 669.81;24228.000;    0.000;    0.000
 669.97;11280.000;    0.000;    0.000
 670.12; 8180.000;    0.000;    0.000
 670.28;11952.000;    0.000;    0.000
 670.44;10060.000;    0.000;    0.000
 670.59; 8964.000;    0.000;    0.000
 670.75; 9036.000;    0.000;    0.000
 670.91;16456.000;    0.000;    0.000
 671.06;10900.000;    0.000;    0.000
 671.22; 7124.000;    0.000;    0.000
 671.38; 6800.000;    0.000;    0.000
 671.53; 5780.000;    0.000;    0.000
 671.69; 9828.000;    0.000;    0.000
 671.84;10248.000;    0.000;    0.000
 672.00; 9148.000;    0.000;    0.000
 672.16;13216.000;    0.000;    0.000
 672.31;17872.000;    0.000;    0.000
 672.47;16604.000;    0.000;    0.000
 672.63;13056.000;    0.000;    0.000
 672.78;12140.000;    0.000;    0.000
 672.94;14216.000;    0.000;    0.000
 673.10;15852.000;    0.000;    0.000
 673.25;10628.000;    0.000;    0.000
 673.41;11292.000;    0.000;    0.000
 673.57;22424.000;    0.000;    0.000
 673.72; 9884.000;    0.000;    0.000
 673.88;13964.000;    0.000;    0.000
 674.03;11576.000;    0.000;    0.000
 674.19;11464.000;    0.000;    0.000
 674.35;13052.000;    0.000;    0.000
 674.50;16512.000;    0.000;    0.000
 674.66;12192.000;    0.000;    0.000
 674.82;10324.000;    0.000;    0.000
 674.97; 8620.000;    0.000;    0.000
 675.13;10868.000;    0.000;    0.000
 675.29;10164.000;    0.000;    0.000
 675.44;10008.000;    0.000;    0.000
 675.60;16928.000;    0.000;    0.000
 675.75;11644.000;    0.000;    0.000
 675.91;16804.000;    0.000;    0.000
 676.07;15564.000;    0.000;    0.000
 676.22;13688.000;    0.000;    0.000
 676.38;13772.000;    0.000;    0.000
 676.54;14428.000;    0.000;    0.000
 676.69;12960.000;    0.000;    0.000
 676.85;14000.000;    0.000;    0.000
 677.00;15332.000;    0.000;    0.000
 677.16;10156.000;    0.000;    0.000
 677.32;15008.000;    0.000;    0.000
 677.47;12748.000;    0.000;    0.000
 677.63; 8856.000;    0.000;    0.000
 677.79;12884.000;    0.000;    0.000
 677.94;13132.000;    0.000;    0.000
 678.10;11468.000;    0.000;    0.000
 678.25;19100.000;    0.000;    0.000
 678.41; 6544.000;    0.000;    0.000
 678.57; 9936.000;    0.000;    0.000
 678.72;10680.000;    0.000;    0.000
 678.88;11164.000;    0.000;    0.000
 679.03; 9000.000;    0.000;    0.000
 679.19;11588.000;    0.000;    0.000
 679.35;16104.000;    0.000;    0.000
 679.50;12228.000;    0.000;    0.000
 679.66;15456.000;    0.000;    0.000
 679.82;11304.000;    0.000;    0.000
 679.97;11644.000;    0.000;    0.000
 680.13;14424.000;    0.000;    0.000
 680.28; 9788.000;    0.000;    0.000
 680.44; 7840.000;    0.000;    0.000
 680.60;10948.000;    0.000;    0.000
 680.75; 9308.000;    0.000;    0.000
 680.91;19356.000;    0.000;    0.000
 681.06;13756.000;    0.000;    0.000
 681.22; 9684.000;    0.000;    0.000
 681.38;16716.000;    0.000;    0.000
 681.53;12524.000;    0.000;    0.000
 681.69;10816.000;    0.000;    0.000
 681.84;17904.000;    0.000;    0.000
 682.00; 7996.000;    0.000;    0.000
 682.16;12176.000;    0.000;    0.000
 682.31;12988.000;    0.000;    0.000
 682.47; 9288.000;    0.000;    0.000
 682.62;10516.000;    0.000;    0.000
 682.78;16028.000;    0.000;    0.000
 682.93;11656.000;    0.000;    0.000
 683.09;16296.000;    0.000;    0.000
 683.25;15572.000;    0.000;    0.000
 683.40; 9092.000;    0.000;    0.000
 683.56;12880.000;    0.000;    0.000
 683.71; 8028.000;    0.000;    0.000
 683.87; 9328.000;    0.000;    0.000
 684.03; 9752.000;    0.000;    0.000
 684.18;15336.000;    0.000;    0.000
 684.34;15176.000;    0.000;    0.000
 684.49;19084.000;    0.000;    0.000
 684.65;13620.000;    0.000;    0.000
 684.80;12224.000;    0.000;    0.000
 684.96;12680.000;    0.000;    0.000
 685.12;12792.000;    0.000;    0.000
 685.27;17308.000;    0.000;    0.000
 685.43; 7944.000;    0.000;    0.000
 685.58;14156.000;    0.000;    0.000
 685.74; 9744.000;    0.000;    0.000
 685.90;10660.000;    0.000;    0.000
 686.05;11052.000;    0.000;    0.000
 686.21;10656.000;    0.000;    0.000
 686.36; 8920.000;    0.000;    0.000
 686.52; 7868.000;    0.000;    0.000
 686.67; 8304.000;    0.000;    0.000
 686.83;10428.000;    0.000;    0.000
 686.99;11304.000;    0.000;    0.000
 687.14;16720.000;    0.000;    0.000
 687.30;13684.000;    0.000;    0.000
 687.45;13220.000;    0.000;    0.000
 687.61; 8024.000;    0.000;    0.000
 687.76;13996.000;    0.000;    0.000
 687.92;15124.000;    0.000;    0.000
 688.07; 6800.000;    0.000;    0.000
 688.23; 9004.000;    0.000;    0.000
 688.39;12920.000;    0.000;    0.000
 688.54;13736.000;    0.000;    0.000
 688.70;11040.000;    0.000;    0.000
 688.85;13936.000;    0.000;    0.000
 689.01; 9364.000;    0.000;    0.000
 689.16;12040.000;    0.000;    0.000
 689.32;15488.000;    0.000;    0.000
 689.47; 8912.000;    0.000;    0.000
 689.63;17616.000;    0.000;    0.000
 689.79; 7768.000;    0.000;    0.000
 689.94;11820.000;    0.000;    0.000
 690.10; 8364.000;    0.000;    0.000
 690.25; 9456.000;    0.000;    0.000
 690.41;15820.000;    0.000;    0.000
 690.56;12540.000;    0.000;    0.000
 690.72; 8876.000;    0.000;    0.000
 690.87;21948.000;    0.000;    0.000
 691.03;15988.000;    0.000;    0.000
 691.18;13128.000;    0.000;    0.000
 691.34; 9408.000;    0.000;    0.000
 691.50;14620.000;    0.000;    0.000
 691.65;15500.000;    0.000;    0.000
 691.81;13456.000;    0.000;    0.000
 691.96;14884.000;    0.000;    0.000
 692.12;12072.000;    0.000;    0.000
 692.27;13900.000;    0.000;    0.000
 692.43;11212.000;    0.000;    0.000
 692.58; 8476.000;    0.000;    0.000
 692.74;13380.000;    0.000;    0.000
 692.89;16584.000;    0.000;    0.000
 693.05;10996.000;    0.000;    0.000
 693.20; 8852.000;    0.000;    0.000
 693.36;14576.000;    0.000;    0.000
 693.52;15740.000;    0.000;    0.000
 693.67;15308.000;    0.000;    0.000
 693.83;11684.000;    0.000;    0.000
 693.98;14460.000;    0.000;    0.000
 694.14; 9528.000;    0.000;    0.000
 694.29; 9672.000;    0.000;    0.000
 694.45; 8648.000;    0.000;    0.000
 694.60;14068.000;    0.000;    0.000
 694.76;11008.000;    0.000;    0.000
 694.91;10080.000;    0.000;    0.000
 695.07;11700.000;    0.000;    0.000
 695.22; 7488.000;    0.000;    0.000
 695.38;24508.000;    0.000;    0.000
 695.53;10804.000;    0.000;    0.000
 695.69;10008.000;    0.000;    0.000
 695.84; 6660.000;    0.000;    0.000
 696.00;12440.000;    0.000;    0.000
 696.15;11312.000;    0.000;    0.000
 696.31;10616.000;    0.000;    0.000
 696.46; 9908.000;    0.000;    0.000
 696.62;16424.000;    0.000;    0.000
 696.77;13432.000;    0.000;    0.000
 696.93;13452.000;    0.000;    0.000
 697.08;10424.000;    0.000;    0.000
 697.24; 9828.000;    0.000;    0.000
 697.40;14848.000;    0.000;    0.000
 697.55;12360.000;    0.000;    0.000
 697.71; 9948.000;    0.000;    0.000
 697.86; 8844.000;    0.000;    0.000
 698.02;14264.000;    0.000;    0.000
 698.17; 8572.000;    0.000;    0.000
 698.33;10628.000;    0.000;    0.000
 698.48;15584.000;    0.000;    0.000
 698.64;11712.000;    0.000;    0.000
 698.79;10772.000;    0.000;    0.000
 698.95;15760.000;    0.000;    0.000
 699.10;13860.000;    0.000;    0.000
 699.26;11020.000;    0.000;    0.000
 699.41; 8168.000;    0.000;    0.000
 699.57;12512.000;    0.000;    0.000
 699.72; 7860.000;    0.000;    0.000
 699.88;11404.000;    0.000;    0.000
 700.03;10424.000;    0.000;    0.000
 700.19;10112.000;    0.000;    0.000
 700.34;14296.000;    0.000;    0.000
 700.49;19572.000;    0.000;    0.000
 700.65; 8344.000;    0.000;    0.000
 700.80; 9244.000;    0.000;    0.000
 700.96;17676.000;    0.000;    0.000
 701.11;14716.000;    0.000;    0.000
 701.27;15328.000;    0.000;    0.000
 701.42;10084.000;    0.000;    0.000
 701.58; 8844.000;    0.000;    0.000
 701.73;14176.000;    0.000;    0.000
 701.89;11152.000;    0.000;    0.000
 702.04; 6228.000;    0.000;    0.000
 702.20;14340.000;    0.000;    0.000
 702.35;18432.000;    0.000;    0.000
 702.51; 6020.000;    0.000;    0.000
 702.66;10004.000;    0.000;    0.000
 702.82;12768.000;    0.000;    0.000
 702.97; 9200.000;    0.000;    0.000
 703.13; 9384.000;    0.000;    0.000
 703.28;11512.000;    0.000;    0.000
 703.44; 7268.000;    0.000;    0.000
 703.59;11204.000;    0.000;    0.000
 703.75;12120.000;    0.000;    0.000
 703.90;14220.000;    0.000;    0.000
 704.06; 6704.000;    0.000;    0.000
 704.21;13232.000;    0.000;    0.000
 704.36; 7364.000;    0.000;    0.000
 704.52;14084.000;    0.000;    0.000
 704.67;14680.000;    0.000;    0.000
 704.83;10832.000;    0.000;    0.000
 704.98; 9184.000;    0.000;    0.000
 705.14; 9872.000;    0.000;    0.000
 705.29;11872.000;    0.000;    0.000
 705.45;11724.000;    0.000;    0.000
 705.60;17020.000;    0.000;    0.000
 705.76; 7580.000;    0.000;    0.000
 705.91;17364.000;    0.000;    0.000
 706.07;10688.000;    0.000;    0.000
 706.22;10856.000;    0.000;    0.000
 706.37;16352.000;    0.000;    0.000
 706.53;10956.000;    0.000;    0.000
 706.68;11228.000;    0.000;    0.000
 706.84;13232.000;    0.000;    0.000
 706.99;12332.000;    0.000;    0.000
 707.15;10536.000;    0.000;    0.000
 707.30;19348.000;    0.000;    0.000
 707.46; 8708.000;    0.000;    0.000
 707.61;10404.000;    0.000;    0.000
 707.77; 6744.000;    0.000;    0.000
 707.92;14736.000;    0.000;    0.000
 708.07;10776.000;    0.000;    0.000
 708.23;11224.000;    0.000;    0.000
 708.38; 8028.000;    0.000;    0.000
 708.54;14416.000;    0.000;    0.000
 708.69; 9964.000;    0.000;    0.000
 708.85; 9804.000;    0.000;    0.000
 709.00;13704.000;    0.000;    0.000
 709.16;13496.000;    0.000;    0.000
 709.31;13124.000;    0.000;    0.000
 709.46;12448.000;    0.000;    0.000
 709.62; 9116.000;    0.000;    0.000
 709.77; 9148.000;    0.000;    0.000
 709.93; 6428.000;    0.000;    0.000
 710.08;12180.000;    0.000;    0.000
 710.24; 9892.000;    0.000;    0.000
 710.39;11528.000;    0.000;    0.000
 710.54; 5564.000;    0.000;    0.000
 710.70;11344.000;    0.000;    0.000
 710.85;12988.000;    0.000;    0.000
 711.01; 9704.000;    0.000;    0.000
 711.16;14460.000;    0.000;    0.000
 711.32; 6200.000;    0.000;    0.000
 711.47; 9224.000;    0.000;    0.000
 711.62;15940.000;    0.000;    0.000
 711.78; 5676.000;    0.000;    0.000
 711.93;10540.000;    0.000;    0.000
 712.09; 8564.000;    0.000;    0.000
 712.24;10824.000;    0.000;    0.000
 712.40; 8196.000;    0.000;    0.000
 712.55;14988.000;    0.000;    0.000
 712.70; 8888.000;    0.000;    0.000
 712.86;15040.000;    0.000;    0.000
 713.01;11984.000;    0.000;    0.000
 713.17;11532.000;    0.000;    0.000
 713.32; 6728.000;    0.000;    0.000
 713.48;13700.000;    0.000;    0.000
 713.63; 8344.000;    0.000;    0.000
 713.78;12664.000;    0.000;    0.000
 713.94;14128.000;    0.000;    0.000
 714.09;10364.000;    0.000;    0.000
 714.25; 7620.000;    0.000;    0.000
 714.40;13236.000;    0.000;    0.000
 714.55; 9612.000;    0.000;    0.000
 714.71; 9832.000;    0.000;    0.000
 714.86;12140.000;    0.000;    0.000
 715.02; 7860.000;    0.000;    0.000
 715.17; 7980.000;    0.000;    0.000
 715.32;14304.000;    0.000;    0.000
 715.48;10696.000;    0.000;    0.000
 715.63; 9832.000;    0.000;    0.000
 715.79;17776.000;    0.000;    0.000
 715.94; 8116.000;    0.000;    0.000
 716.09; 6828.000;    0.000;    0.000
 716.25;19572.000;    0.000;    0.000
 716.40; 9172.000;    0.000;    0.000
 716.56;11568.000;    0.000;    0.000
 716.71; 9380.000;    0.000;    0.000
 716.86;11296.000;    0.000;    0.000
 717.02; 9040.000;    0.000;    0.000
 717.17;17760.000;    0.000;    0.000
 717.33;10248.000;    0.000;    0.000
 717.48;11428.000;    0.000;    0.000
 717.63;10400.000;    0.000;    0.000
 717.79;14160.000;    0.000;    0.000
 717.94;12720.000;    0.000;    0.000
 718.10;11316.000;    0.000;    0.000
 718.25; 9196.000;    0.000;    0.000
 718.40; 8720.000;    0.000;    0.000
 718.56; 6380.000;    0.000;    0.000
 718.71; 9064.000;    0.000;    0.000
 718.87;12832.000;    0.000;    0.000
 719.02;12716.000;    0.000;    0.000
 719.17;12016.000;    0.000;    0.000
 719.33;18120.000;    0.000;    0.000
 719.48;15412.000;    0.000;    0.000
 719.63;10912.000;    0.000;    0.000
 719.79;17996.000;    0.000;    0.000
 719.94; 8280.000;    0.000;    0.000
 720.10; 7672.000;    0.000;    0.000
 720.25;10420.000;    0.000;    0.000
 720.40; 8304.000;    0.000;    0.000
 720.56;17540.000;    0.000;    0.000
 720.71;15584.000;    0.000;    0.000
 720.86;10544.000;    0.000;    0.000
 721.02;10624.000;    0.000;    0.000
 721.17; 9692.000;    0.000;    0.000
 721.33;14492.000;    0.000;    0.000
 721.48; 6840.000;    0.000;    0.000
 721.63;14552.000;    0.000;    0.000
 721.79;23048.000;    0.000;    0.000
 721.94;10260.000;    0.000;    0.000
 722.09;13792.000;    0.000;    0.000
 722.25; 9084.000;    0.000;    0.000
 722.40;13456.000;    0.000;    0.000
 722.55;12984.000;    0.000;    0.000
 722.71;12028.000;    0.000;    0.000
 722.86;11212.000;    0.000;    0.000
 723.02;14860.000;    0.000;    0.000
 723.17;12256.000;    0.000;    0.000
 723.32;16268.000;    0.000;    0.000
 723.48;14864.000;    0.000;    0.000
 723.63;14412.000;    0.000;    0.000
 723.78;17744.000;    0.000;    0.000
 723.94;14792.000;    0.000;    0.000
 724.09; 8956.000;    0.000;    0.000
 724.24;16892.000;    0.000;    0.000
 724.40;15412.000;    0.000;    0.000
 724.55;22428.000;    0.000;    0.000
 724.70; 9020.000;    0.000;    0.000
 724.86;10928.000;    0.000;    0.000
 725.01;13308.000;    0.000;    0.000
 725.17;11884.000;    0.000;    0.000
 725.32; 8516.000;    0.000;    0.000
 725.47;17616.000;    0.000;    0.000
 725.63;16960.000;    0.000;    0.000
 725.78;18008.000;    0.000;    0.000
 725.93;16788.000;    0.000;    0.000
 726.09;10328.000;    0.000;    0.000
 726.24;12456.000;    0.000;    0.000
 726.39;11168.000;    0.000;    0.000
 726.55;13264.000;    0.000;    0.000
 726.70;13500.000;    0.000;    0.000
 726.85;12152.000;    0.000;    0.000
 727.01;15508.000;    0.000;    0.000
 727.16;10104.000;    0.000;    0.000
 727.31;10384.000;    0.000;    0.000
 727.47;10624.000;    0.000;    0.000
 727.62;16392.000;    0.000;    0.000
 727.77;12908.000;    0.000;    0.000
 727.93;11876.000;    0.000;    0.000
 728.08;16444.000;    0.000;    0.000
 728.23;12564.000;    0.000;    0.000
 728.39; 9488.000;    0.000;    0.000
 728.54;10896.000;    0.000;    0.000
 728.69;14180.000;    0.000;    0.000
 728.85;14216.000;    0.000;    0.000
 729.00; 8384.000;    0.000;    0.000
 729.15;12488.000;    0.000;    0.000
 729.31;14096.000;    0.000;    0.000
 729.46;14472.000;    0.000;    0.000
 729.61;15116.000;    0.000;    0.000
 729.76; 9676.000;    0.000;    0.000
 729.92;15260.000;    0.000;    0.000
 730.07; 7172.000;    0.000;    0.000
 730.22; 8568.000;    0.000;    0.000
 730.38;10096.000;    0.000;    0.000
 730.53;18124.000;    0.000;    0.000
 730.68; 9920.000;    0.000;    0.000
 730.84;16040.000;    0.000;    0.000
 730.99;19196.000;    0.000;    0.000
 731.14;14236.000;    0.000;    0.000
 731.30;16732.000;    0.000;    0.000
 731.45;14152.000;    0.000;    0.000
 731.60;20256.000;    0.000;    0.000
 731.76;13100.000;    0.000;    0.000
 731.91; 9796.000;    0.000;    0.000
 732.06; 8972.000;    0.000;    0.000
 732.21;24928.000;    0.000;    0.000
 732.37;10124.000;    0.000;    0.000
 732.52;16596.000;    0.000;    0.000
 732.67; 7948.000;    0.000;    0.000
 732.83;11692.000;    0.000;    0.000
 732.98;13124.000;    0.000;    0.000
 733.13;18252.000;    0.000;    0.000
 733.29;17460.000;    0.000;    0.000
 733.44;18520.000;    0.000;    0.000
 733.59; 8352.000;    0.000;    0.000
 733.74;15900.000;    0.000;    0.000
 733.90;10540.000;    0.000;    0.000
 734.05;14372.000;    0.000;    0.000
 734.20;10268.000;    0.000;    0.000
 734.36;11952.000;    0.000;    0.000
 734.51; 4760.000;    0.000;    0.000
 734.66;11796.000;    0.000;    0.000
 734.82; 9076.000;    0.000;    0.000
 734.97;12108.000;    0.000;    0.000
 735.12;13100.000;    0.000;    0.000
 735.27;15616.000;    0.000;    0.000
 735.43;15684.000;    0.000;    0.000
 735.58; 9304.000;    0.000;    0.000
 735.73;14520.000;    0.000;    0.000
 735.89; 7632.000;    0.000;    0.000
 736.04;16384.000;    0.000;    0.000
 736.19;14176.000;    0.000;    0.000
 736.34;10584.000;    0.000;    0.000
 736.50;13428.000;    0.000;    0.000
 736.65;14136.000;    0.000;    0.000
 736.80;15780.000;    0.000;    0.000
 736.95;13368.000;    0.000;    0.000
 737.11;10128.000;    0.000;    0.000
 737.26;12144.000;    0.000;    0.000
 737.41;15032.000;    0.000;    0.000
 737.57;12764.000;    0.000;    0.000
 737.72; 8140.000;    0.000;    0.000
 737.87; 8488.000;    0.000;    0.000
 738.02;15088.000;    0.000;    0.000
 738.18; 9420.000;    0.000;    0.000
 738.33;10780.000;    0.000;    0.000
 738.48;17220.000;    0.000;    0.000
 738.63;12536.000;    0.000;    0.000
 738.79;10720.000;    0.000;    0.000
 738.94; 5404.000;    0.000;    0.000
 739.09; 8144.000;    0.000;    0.000
 739.25;12712.000;    0.000;    0.000
 739.40;17000.000;    0.000;    0.000
 739.55;10336.000;    0.000;    0.000
 739.70;13196.000;    0.000;    0.000
 739.86;11612.000;    0.000;    0.000
 740.01;23632.000;    0.000;    0.000
 740.16; 7888.000;    0.000;    0.000
 740.31;13492.000;    0.000;    0.000
 740.47;11952.000;    0.000;    0.000
 740.62;12484.000;    0.000;    0.000
 740.77; 8372.000;    0.000;    0.000
 740.92;11736.000;    0.000;    0.000
 741.08;10492.000;    0.000;    0.000
 741.23;11840.000;    0.000;    0.000
 741.38;18740.000;    0.000;    0.000
 741.53;16012.000;    0.000;    0.000
 741.69; 9484.000;    0.000;    0.000
 741.84;12568.000;    0.000;    0.000
 741.99;12480.000;    0.000;    0.000
 742.14;10540.000;    0.000;    0.000
 742.30;10756.000;    0.000;    0.000
 742.45;11808.000;    0.000;    0.000
 742.60; 7004.000;    0.000;    0.000
 742.75;13284.000;    0.000;    0.000
 742.91;14244.000;    0.000;    0.000
 743.06; 6712.000;    0.000;    0.000
 743.21;14732.000;    0.000;    0.000
 743.36;11272.000;    0.000;    0.000
 743.52;18696.000;    0.000;    0.000
 743.67;11656.000;    0.000;    0.000
 743.82;11704.000;    0.000;    0.000
 743.97; 8616.000;    0.000;    0.000
 744.12;16108.000;    0.000;    0.000
 744.28;16496.000;    0.000;    0.000
 744.43;17420.000;    0.000;    0.000
 744.58; 9312.000;    0.000;    0.000
 744.73;11688.000;    0.000;    0.000
 744.89;11744.000;    0.000;    0.000
 745.04; 8672.000;    0.000;    0.000
 745.19;11872.000;    0.000;    0.000
 745.34;15980.000;    0.000;    0.000
 745.50;10956.000;    0.000;    0.000
 745.65;11688.000;    0.000;    0.000
 745.80;11244.000;    0.000;    0.000
 745.95; 8424.000;    0.000;    0.000
 746.10;10316.000;    0.000;    0.000
 746.26;10980.000;    0.000;    0.000
 746.41;10388.000;    0.000;    0.000
 746.56;13452.000;    0.000;    0.000
 746.71;10560.000;    0.000;    0.000
 746.87; 7348.000;    0.000;    0.000
 747.02;15012.000;    0.000;    0.000
 747.17;13888.000;    0.000;    0.000
 747.32;10852.000;    0.000;    0.000
 747.47;13272.000;    0.000;    0.000
 747.63;14112.000;    0.000;    0.000
 747.78;16956.000;    0.000;    0.000
 747.93;15020.000;    0.000;    0.000
 748.08;11920.000;    0.000;    0.000
 748.23; 9684.000;    0.000;    0.000
 748.39;12740.000;    0.000;    0.000
 748.54;15180.000;    0.000;    0.000
 748.69; 7948.000;    0.000;    0.000
 748.84; 8584.000;    0.000;    0.000
 748.99; 8844.000;    0.000;    0.000
 749.15; 9572.000;    0.000;    0.000
 749.30;17696.000;    0.000;    0.000
 749.45;13640.000;    0.000;    0.000
 749.60;20236.000;    0.000;    0.000
 749.75;11820.000;    0.000;    0.000
 749.91;13684.000;    0.000;    0.000
 750.06;11136.000;    0.000;    0.000
 750.21;11536.000;    0.000;    0.000
 750.36;11340.000;    0.000;    0.000
 750.51;14980.000;    0.000;    0.000
 750.67;13740.000;    0.000;    0.000
 750.82; 7772.000;    0.000;    0.000
 750.97;12672.000;    0.000;    0.000
 751.12; 7924.000;    0.000;    0.000
 751.27;10824.000;    0.000;    0.000
 751.43;12328.000;    0.000;    0.000
 751.58; 7584.000;    0.000;    0.000
 751.73; 8996.000;    0.000;    0.000
 751.88;14256.000;    0.000;    0.000
 752.03;13712.000;    0.000;    0.000
 752.19; 6208.000;    0.000;    0.000
 752.34;13500.000;    0.000;    0.000
 752.49;14828.000;    0.000;    0.000
 752.64; 9728.000;    0.000;    0.000
 752.79; 7304.000;    0.000;    0.000
 752.94;11364.000;    0.000;    0.000
 753.10;11640.000;    0.000;    0.000
 753.25;14464.000;    0.000;    0.000
 753.40; 8956.000;    0.000;    0.000
 753.55;10060.000;    0.000;    0.000
 753.70;17208.000;    0.000;    0.000
 753.85;16016.000;    0.000;    0.000
 754.01;11012.000;    0.000;    0.000
 754.16;10540.000;    0.000;    0.000
 754.31;11616.000;    0.000;    0.000
 754.46;12080.000;    0.000;    0.000
 754.61;14104.000;    0.000;    0.000
 754.76;11288.000;    0.000;    0.000
 754.92; 7748.000;    0.000;    0.000
 755.07;18644.000;    0.000;    0.000
 755.22; 9080.000;    0.000;    0.000
 755.37;13144.000;    0.000;    0.000
 755.52;12140.000;    0.000;    0.000
 755.67;13436.000;    0.000;    0.000
 755.83; 8124.000;    0.000;    0.000
 755.98; 7416.000;    0.000;    0.000
 756.13;11980.000;    0.000;    0.000
 756.28;12260.000;    0.000;    0.000
 756.43;10180.000;    0.000;    0.000
 756.58;24792.000;    0.000;    0.000
 756.74;15116.000;    0.000;    0.000
 756.89; 9448.000;    0.000;    0.000
 757.04;17548.000;    0.000;    0.000
 757.19; 9224.000;    0.000;    0.000
 757.34;12920.000;    0.000;    0.000
 757.49;10444.000;    0.000;    0.000
 757.65;12536.000;    0.000;    0.000
 757.80;13284.000;    0.000;    0.000
 757.95;15308.000;    0.000;    0.000
 758.10;22220.000;    0.000;    0.000
 758.25; 5852.000;    0.000;    0.000
 758.40;10904.000;    0.000;    0.000
 758.55;11056.000;    0.000;    0.000
 758.71;24752.000;    0.000;    0.000
 758.86;16132.000;    0.000;    0.000
 759.01;11168.000;    0.000;    0.000
 759.16; 8492.000;    0.000;    0.000
 759.31;20940.000;    0.000;    0.000
 759.46; 8144.000;    0.000;    0.000
 759.61;12532.000;    0.000;    0.000
 759.77; 8004.000;    0.000;    0.000
 759.92; 8008.000;    0.000;    0.000
 760.07;11120.000;    0.000;    0.000
 760.22;11184.000;    0.000;    0.000
 760.37;13464.000;    0.000;    0.000
 760.52;17844.000;    0.000;    0.000
 760.67;13584.000;    0.000;    0.000
 760.82; 8964.000;    0.000;    0.000
 760.98;14320.000;    0.000;    0.000
 761.13;10020.000;    0.000;    0.000
 761.28;19200.000;    0.000;    0.000
 761.43; 8128.000;    0.000;    0.000
 761.58;10004.000;    0.000;    0.000
 761.73;12064.000;    0.000;    0.000
 761.88;18272.000;    0.000;    0.000
 762.03;14128.000;    0.000;    0.000
 762.19;19688.000;    0.000;    0.000
 762.34;10520.000;    0.000;    0.000
 762.49;10288.000;    0.000;    0.000
 762.64;11876.000;    0.000;    0.000
 762.79; 9356.000;    0.000;    0.000
 762.94;11092.000;    0.000;    0.000
 763.09;11328.000;    0.000;    0.000
 763.24;11640.000;    0.000;    0.000
 763.40;15760.000;    0.000;    0.000
 763.55;10232.000;    0.000;    0.000
 763.70; 8712.000;    0.000;    0.000
 763.85; 5640.000;    0.000;    0.000
 764.00; 7760.000;    0.000;    0.000
 764.15;11504.000;    0.000;    0.000
 764.30; 6568.000;    0.000;    0.000
 764.45; 7784.000;    0.000;    0.000
 764.60;15280.000;    0.000;    0.000
 764.76;11340.000;    0.000;    0.000
 764.91; 7464.000;    0.000;    0.000
 765.06;12232.000;    0.000;    0.000
 765.21; 8516.000;    0.000;    0.000
 765.36;13956.000;    0.000;    0.000
 765.51; 7704.000;    0.000;    0.000
 765.66;14160.000;    0.000;    0.000
 765.81; 8328.000;    0.000;    0.000
 765.96;13144.000;    0.000;    0.000
 766.11;11240.000;    0.000;    0.000
 766.27;12064.000;    0.000;    0.000
 766.42;12448.000;    0.000;    0.000
 766.57;14464.000;    0.000;    0.000
 766.72; 9188.000;    0.000;    0.000
 766.87;12364.000;    0.000;    0.000
 767.02; 9644.000;    0.000;    0.000
 767.17;13036.000;    0.000;    0.000
 767.32;10536.000;    0.000;    0.000
 767.47;14556.000;    0.000;    0.000
 767.62;13796.000;    0.000;    0.000
 767.77;11896.000;    0.000;    0.000
 767.93; 8232.000;    0.000;    0.000
 768.08;12576.000;    0.000;    0.000
 768.23;10756.000;    0.000;    0.000
 768.38;13932.000;    0.000;    0.000
 768.53;15656.000;    0.000;    0.000
 768.68;16000.000;    0.000;    0.000
 768.83; 9868.000;    0.000;    0.000
 768.98; 9448.000;    0.000;    0.000
 769.13;10208.000;    0.000;    0.000
 769.28;14956.000;    0.000;    0.000
 769.43;13568.000;    0.000;    0.000
 769.58;14704.000;    0.000;    0.000
 769.73;13272.000;    0.000;    0.000
 769.89;12400.000;    0.000;    0.000
 770.04;12164.000;    0.000;    0.000
 770.19;12668.000;    0.000;    0.000
 770.34; 6744.000;    0.000;    0.000
 770.49;14704.000;    0.000;    0.000
 770.64;11596.000;    0.000;    0.000
 770.79;18256.000;    0.000;    0.000
 770.94;10288.000;    0.000;    0.000
 771.09;14296.000;    0.000;    0.000
 771.24;18764.000;    0.000;    0.000
 771.39;16088.000;    0.000;    0.000
 771.54;13040.000;    0.000;    0.000
 771.69;12204.000;    0.000;    0.000
 771.84;11960.000;    0.000;    0.000
 771.99;12356.000;    0.000;    0.000
 772.15; 8340.000;    0.000;    0.000
 772.30;10176.000;    0.000;    0.000
 772.45;17624.000;    0.000;    0.000
 772.60; 8820.000;    0.000;    0.000
 772.75;11560.000;    0.000;    0.000
 772.90;12648.000;    0.000;    0.000
 773.05;12528.000;    0.000;    0.000
 773.20;13600.000;    0.000;    0.000
 773.35; 6972.000;    0.000;    0.000
 773.50;11244.000;    0.000;    0.000
 773.65; 8580.000;    0.000;    0.000
 773.80;13296.000;    0.000;    0.000
 773.95; 6600.000;    0.000;    0.000
 774.10; 8248.000;    0.000;    0.000
 774.25; 6100.000;    0.000;    0.000
 774.40; 9620.000;    0.000;    0.000
 774.55;11452.000;    0.000;    0.000
 774.70;15284.000;    0.000;    0.000
 774.85;17176.000;    0.000;    0.000
 775.00;13456.000;    0.000;    0.000
 775.16;15328.000;    0.000;    0.000
 775.31; 7204.000;    0.000;    0.000
 775.46; 9504.000;    0.000;    0.000
 775.61;17756.000;    0.000;    0.000
 775.76;11880.000;    0.000;    0.000
 775.91; 8408.000;    0.000;    0.000
 776.06; 9612.000;    0.000;    0.000
 776.21;10112.000;    0.000;    0.000
 776.36;12248.000;    0.000;    0.000
 776.51;12208.000;    0.000;    0.000
 776.66;11252.000;    0.000;    0.000
 776.81;15584.000;    0.000;    0.000
 776.96;10948.000;    0.000;    0.000
 777.11; 6400.000;    0.000;    0.000
 777.26;16896.000;    0.000;    0.000
 777.41;10340.000;    0.000;    0.000
 777.56; 9372.000;    0.000;    0.000
 777.71;16032.000;    0.000;    0.000
 777.86; 9588.000;    0.000;    0.000
 778.01; 9496.000;    0.000;    0.000
 778.16;13224.000;    0.000;    0.000
 778.31; 8476.000;    0.000;    0.000
 778.46;12120.000;    0.000;    0.000
 778.61;18764.000;    0.000;    0.000
 778.76; 7476.000;    0.000;    0.000
 778.91; 7820.000;    0.000;    0.000
 779.06;11404.000;    0.000;    0.000
 779.21; 8356.000;    0.000;    0.000
 779.36;10100.000;    0.000;    0.000
 779.51; 9900.000;    0.000;    0.000
 779.66;10868.000;    0.000;    0.000
 779.81;14564.000;    0.000;    0.000
 779.96; 7212.000;    0.000;    0.000
 780.11; 8468.000;    0.000;    0.000
 780.26;10172.000;    0.000;    0.000
 780.41;13728.000;    0.000;    0.000
 780.56; 8716.000;    0.000;    0.000
 780.71;12496.000;    0.000;    0.000
 780.86;12308.000;    0.000;    0.000
 781.01;12272.000;    0.000;    0.000
 781.16;12728.000;    0.000;    0.000
 781.31; 6772.000;    0.000;    0.000
 781.46;10272.000;    0.000;    0.000
 781.61; 9232.000;    0.000;    0.000
 781.76; 6272.000;    0.000;    0.000
 781.91; 7128.000;    0.000;    0.000
 782.06; 8584.000;    0.000;    0.000
 782.21;10980.000;    0.000;    0.000
 782.36;11396.000;    0.000;    0.000
 782.51;15672.000;    0.000;    0.000
 782.66; 6548.000;    0.000;    0.000
 782.81; 6720.000;    0.000;    0.000
 782.96; 9420.000;    0.000;    0.000
 783.11;12732.000;    0.000;    0.000
 783.26; 8996.000;    0.000;    0.000
 783.41;12712.000;    0.000;    0.000
 783.56;13564.000;    0.000;    0.000
 783.71;14772.000;    0.000;    0.000
 783.86;10204.000;    0.000;    0.000
 784.01;10600.000;    0.000;    0.000
 784.16;14936.000;    0.000;    0.000
 784.31; 7360.000;    0.000;    0.000
 784.46; 9680.000;    0.000;    0.000
 784.61; 9456.000;    0.000;    0.000
 784.76;16388.000;    0.000;    0.000
 784.91;10532.000;    0.000;    0.000
 785.06;10884.000;    0.000;    0.000
 785.21;13928.000;    0.000;    0.000
 785.36; 9356.000;    0.000;    0.000
 785.51;12100.000;    0.000;    0.000
 785.66; 9456.000;    0.000;    0.000
 785.81; 9808.000;    0.000;    0.000
 785.96; 6836.000;    0.000;    0.000
 786.11;13792.000;    0.000;    0.000
 786.26;14516.000;    0.000;    0.000
 786.41; 9996.000;    0.000;    0.000
 786.56;11596.000;    0.000;    0.000
 786.71;12300.000;    0.000;    0.000
 786.86;11200.000;    0.000;    0.000
 787.01;14968.000;    0.000;    0.000
 787.16;10560.000;    0.000;    0.000
 787.31;11784.000;    0.000;    0.000
 787.46;14916.000;    0.000;    0.000
 787.61;16864.000;    0.000;    0.000
 787.75;16424.000;    0.000;    0.000
 787.90;14316.000;    0.000;    0.000
 788.05;10404.000;    0.000;    0.000
 788.20;12048.000;    0.000;    0.000
 788.35; 8708.000;    0.000;    0.000
 788.50; 9988.000;    0.000;    0.000
 788.65;19488.000;    0.000;    0.000
 788.80;12580.000;    0.000;    0.000
 788.95; 9180.000;    0.000;    0.000
 789.10;12072.000;    0.000;    0.000
 789.25; 9156.000;    0.000;    0.000
 789.40;16436.000;    0.000;    0.000
 789.55;12572.000;    0.000;    0.000
 789.70; 7936.000;    0.000;    0.000
 789.85;16708.000;    0.000;    0.000
 790.00;16028.000;    0.000;    0.000
 790.15;17076.000;    0.000;    0.000
 790.30;10036.000;    0.000;    0.000
 790.45;17184.000;    0.000;    0.000
 790.60;10912.000;    0.000;    0.000
 790.74; 7416.000;    0.000;    0.000
 790.89; 9516.000;    0.000;    0.000
 791.04; 8180.000;    0.000;    0.000
 791.19;21044.000;    0.000;    0.000
 791.34; 7812.000;    0.000;    0.000
 791.49;10564.000;    0.000;    0.000
 791.64; 8908.000;    0.000;    0.000
 791.79; 9720.000;    0.000;    0.000
 791.94;12828.000;    0.000;    0.000
 792.09;16320.000;    0.000;    0.000
 792.24;10012.000;    0.000;    0.000
 792.39;12848.000;    0.000;    0.000
 792.54;11068.000;    0.000;    0.000
 792.69;16224.000;    0.000;    0.000
 792.83;12136.000;    0.000;    0.000
 792.98;11084.000;    0.000;    0.000
 793.13;10616.000;    0.000;    0.000
 793.28;14488.000;    0.000;    0.000
 793.43; 8376.000;    0.000;    0.000
 793.58;18752.000;    0.000;    0.000
 793.73;13372.000;    0.000;    0.000
 793.88;10900.000;    0.000;    0.000
 794.03; 8544.000;    0.000;    0.000
 794.18;14224.000;    0.000;    0.000
 794.33; 8636.000;    0.000;    0.000
 794.48; 7576.000;    0.000;    0.000
 794.63; 9456.000;    0.000;    0.000
 794.77;15832.000;    0.000;    0.000
 794.92; 9224.000;    0.000;    0.000
 795.07;11504.000;    0.000;    0.000
 795.22; 9204.000;    0.000;    0.000
 795.37;12940.000;    0.000;    0.000
 795.52;10828.000;    0.000;    0.000
 795.67; 8244.000;    0.000;    0.000
 795.82; 9492.000;    0.000;    0.000
 795.97;10864.000;    0.000;    0.000
 796.12;11468.000;    0.000;    0.000
 796.27;11168.000;    0.000;    0.000
 796.41;14192.000;    0.000;    0.000
 796.56;15344.000;    0.000;    0.000
 796.71; 9296.000;    0.000;    0.000
 796.86;15944.000;    0.000;    0.000
 797.01;18092.000;    0.000;    0.000
 797.16;12336.000;    0.000;    0.000
 797.31; 8440.000;    0.000;    0.000
 797.46;11844.000;    0.000;    0.000
 797.61;11432.000;    0.000;    0.000
 797.76;14488.000;    0.000;    0.000
 797.90;14592.000;    0.000;    0.000
 798.05; 8152.000;    0.000;    0.000
 798.20;11100.000;    0.000;    0.000
 798.35;16160.000;    0.000;    0.000
 798.50;18528.000;    0.000;    0.000
 798.65;13812.000;    0.000;    0.000
 798.80;10288.000;    0.000;    0.000
 798.95;13560.000;    0.000;    0.000
 799.10; 6720.000;    0.000;    0.000
 799.24;15112.000;    0.000;    0.000
 799.39;10840.000;    0.000;    0.000
 799.54;17160.000;    0.000;    0.000
 799.69; 7176.000;    0.000;    0.000
 799.84;14792.000;    0.000;    0.000
 799.99; 8848.000;    0.000;    0.000
 800.14; 8740.000;    0.000;    0.000
 800.29;19672.000;    0.000;    0.000
 800.43; 6828.000;    0.000;    0.000
 800.58;16452.000;    0.000;    0.000
 800.73;15016.000;    0.000;    0.000
 800.88;15416.000;    0.000;    0.000
 801.03;13768.000;    0.000;    0.000
 801.18;12192.000;    0.000;    0.000
 801.33;11624.000;    0.000;    0.000
 801.48;10852.000;    0.000;    0.000
 801.62;12480.000;    0.000;    0.000
 801.77;15272.000;    0.000;    0.000
 801.92;12168.000;    0.000;    0.000
 802.07;11220.000;    0.000;    0.000
 802.22;13916.000;    0.000;    0.000
 802.37;15060.000;    0.000;    0.000
 802.52;14480.000;    0.000;    0.000
 802.66;14308.000;    0.000;    0.000
 802.81; 8856.000;    0.000;    0.000
 802.96;12960.000;    0.000;    0.000
 803.11;17288.000;    0.000;    0.000
 803.26;15360.000;    0.000;    0.000
 803.41; 7412.000;    0.000;    0.000
 803.56; 8856.000;    0.000;    0.000
 803.70;11608.000;    0.000;    0.000
 803.85;11960.000;    0.000;    0.000
 804.00; 8504.000;    0.000;    0.000
 804.15;11496.000;    0.000;    0.000
 804.30;12904.000;    0.000;    0.000
 804.45; 9632.000;    0.000;    0.000
 804.60; 8628.000;    0.000;    0.000
 804.74;13060.000;    0.000;    0.000
 804.89; 9300.000;    0.000;    0.000
 805.04; 9760.000;    0.000;    0.000
 805.19; 9288.000;    0.000;    0.000
 805.34;11548.000;    0.000;    0.000
 805.49; 6488.000;    0.000;    0.000
 805.63; 8780.000;    0.000;    0.000
 805.78;22148.000;    0.000;    0.000
 805.93;14604.000;    0.000;    0.000
 806.08;10248.000;    0.000;    0.000
 806.23; 8348.000;    0.000;    0.000
 806.38; 8668.000;    0.000;    0.000
 806.53;10164.000;    0.000;    0.000
 806.67;13384.000;    0.000;    0.000
 806.82; 9300.000;    0.000;    0.000
 806.97; 7924.000;    0.000;    0.000
 807.12; 7912.000;    0.000;    0.000
 807.27;11260.000;    0.000;    0.000
 807.42; 9768.000;    0.000;    0.000
 807.56; 7200.000;    0.000;    0.000
 807.71;16228.000;    0.000;    0.000
 807.86;10876.000;    0.000;    0.000
 808.01;16660.000;    0.000;    0.000
 808.16;16980.000;    0.000;    0.000
 808.30; 7332.000;    0.000;    0.000
 808.45;14976.000;    0.000;    0.000
 808.60; 8520.000;    0.000;    0.000
 808.75;10804.000;    0.000;    0.000
 808.90;13232.000;    0.000;    0.000
 809.05;13340.000;    0.000;    0.000
 809.19;14696.000;    0.000;    0.000
 809.34;10060.000;    0.000;    0.000
 809.49;13756.000;    0.000;    0.000
 809.64;12052.000;    0.000;    0.000
 809.79; 8916.000;    0.000;    0.000
 809.93; 9084.000;    0.000;    0.000
 810.08; 9676.000;    0.000;    0.000
 810.23;12352.000;    0.000;    0.000
 810.38;13684.000;    0.000;    0.000
 810.53;11952.000;    0.000;    0.000
 810.68;11220.000;    0.000;    0.000
 810.82;16980.000;    0.000;    0.000
 810.97;13476.000;    0.000;    0.000
 811.12;10944.000;    0.000;    0.000
 811.27; 9636.000;    0.000;    0.000
 811.42; 8624.000;    0.000;    0.000
 811.56;16088.000;    0.000;    0.000
 811.71;12816.000;    0.000;    0.000
 811.86; 8336.000;    0.000;    0.000
 812.01;12592.000;    0.000;    0.000
 812.16; 9448.000;    0.000;    0.000
 812.30;11264.000;    0.000;    0.000
 812.45;11964.000;    0.000;    0.000
 812.60;11540.000;    0.000;    0.000
 812.75; 7376.000;    0.000;    0.000
 812.90;14060.000;    0.000;    0.000
 813.04;14212.000;    0.000;    0.000
 813.19;11988.000;    0.000;    0.000
 813.34; 9236.000;    0.000;    0.000
 813.49;16136.000;    0.000;    0.000
 813.63;12672.000;    0.000;    0.000
 813.78;14852.000;    0.000;    0.000
 813.93;12284.000;    0.000;    0.000
 814.08;12100.000;    0.000;    0.000
 814.23;14960.000;    0.000;    0.000
 814.37;18492.000;    0.000;    0.000
 814.52;15548.000;    0.000;    0.000
 814.67;13828.000;    0.000;    0.000
 814.82;14156.000;    0.000;    0.000
 814.97;10648.000;    0.000;    0.000
 815.11;21488.000;    0.000;    0.000
 815.26;16520.000;    0.000;    0.000
 815.41;12732.000;    0.000;    0.000
 815.56;11768.000;    0.000;    0.000
 815.70;15616.000;    0.000;    0.000
 815.85;15092.000;    0.000;    0.000
 816.00;10780.000;    0.000;    0.000
 816.15;11872.000;    0.000;    0.000
 816.29;12132.000;    0.000;    0.000
 816.44;14996.000;    0.000;    0.000
 816.59;13460.000;    0.000;    0.000
 816.74;12456.000;    0.000;    0.000
 816.89;12724.000;    0.000;    0.000
 817.03;14844.000;    0.000;    0.000
 817.18; 7704.000;    0.000;    0.000
 817.33;15512.000;    0.000;    0.000
 817.48; 9464.000;    0.000;    0.000
 817.62;10888.000;    0.000;    0.000
 817.77;11076.000;    0.000;    0.000
 817.92;15020.000;    0.000;    0.000
 818.07;14352.000;    0.000;    0.000
 818.21;12040.000;    0.000;    0.000
 818.36;10552.000;    0.000;    0.000
 818.51;12940.000;    0.000;    0.000
 818.66;10492.000;    0.000;    0.000
 818.80; 7608.000;    0.000;    0.000
 818.95;10136.000;    0.000;    0.000
 819.10; 9012.000;    0.000;    0.000
 819.25; 7180.000;    0.000;    0.000
 819.39;10540.000;    0.000;    0.000
 819.54;15120.000;    0.000;    0.000
 819.69; 8796.000;    0.000;    0.000
 819.84; 7812.000; 2060.000;    0.000
 819.98;10800.000; 1928.000;    0.000
 820.13;15900.000; 2464.000;    0.000
 820.28;14908.000; 2580.000;    0.000
 820.43;11120.000; 1912.000;    0.000
 820.57;16016.000; 2056.000;    0.000
 820.72;17224.000; 2508.000;    0.000
 820.87;11888.000; 2328.000;    0.000
 821.02;14856.000; 2048.000;    0.000
 821.16;12180.000; 1944.000;    0.000
 821.31;10352.000; 2336.000;    0.000
 821.46;11504.000; 2360.000;    0.000
 821.61;13620.000; 2064.000;    0.000
 821.75;17844.000; 2160.000;    0.000
 821.90;10728.000; 2256.000;    0.000
 822.05;13100.000; 2624.000;    0.000
 822.19;10264.000; 1992.000;    0.000
 822.34;14772.000; 2096.000;    0.000
 822.49;10328.000; 2320.000;    0.000
 822.64;18672.000; 2588.000;    0.000
 822.78;11228.000; 1980.000;    0.000
 822.93;11332.000; 2020.000;    0.000
 823.08;15160.000; 2288.000;    0.000
 823.23;17340.000; 2564.000;    0.000
 823.37;10784.000; 2000.000;    0.000
 823.52;10708.000; 2004.000;    0.000
 823.67;15232.000; 2592.000;    0.000
 823.81;18348.000; 2672.000;    0.000
 823.96;19284.000; 2128.000;    0.000
 824.11; 9156.000; 2008.000;    0.000
 824.26;14604.000; 2596.000;    0.000
 824.40;18268.000; 2620.000;    0.000
 824.55; 7604.000; 2008.000;    0.000
 824.70;11924.000; 2048.000;    0.000
 824.84;16304.000; 2180.000;    0.000
 824.99;13584.000; 2420.000;    0.000
 825.14;13440.000; 2048.000;    0.000
 825.29;12988.000; 2140.000;    0.000
 825.43;14360.000; 2556.000;    0.000
 825.58;13068.000; 2628.000;    0.000
 825.73; 6712.000; 1936.000;    0.000
 825.87;10328.000; 1972.000;    0.000
 826.02; 8064.000; 2472.000;    0.000
 826.17;12512.000; 2668.000;    0.000
 826.31;10200.000; 1956.000;    0.000
 826.46; 6960.000; 1892.000;    0.000
 826.61;14272.000; 2496.000;    0.000
 826.76;15716.000; 2712.000;    0.000
 826.90;12940.000; 2028.000;    0.000
 827.05;10624.000; 1984.000;    0.000
 827.20; 6148.000; 2500.000;    0.000
 827.34;13596.000; 2416.000;    0.000
 827.49;10200.000; 1964.000;    0.000
 827.64;10884.000; 2008.000;    0.000
 827.78;17464.000; 2436.000;    0.000
 827.93;12944.000; 2556.000;    0.000
 828.08; 9064.000; 1988.000;    0.000
 828.23;11064.000; 2032.000;    0.000
 828.37;10676.000; 2244.000;    0.000
 828.52; 7364.000; 2608.000;    0.000
 828.67;11520.000; 1936.000;    0.000
 828.81;12420.000; 2024.000;    0.000
 828.96;10212.000; 2428.000;    0.000
 829.11;13964.000; 2544.000;    0.000
 829.25;12264.000; 2016.000;    0.000
 829.40;12500.000; 1984.000;    0.000
 829.55;17116.000; 2248.000;    0.000
 829.69;19276.000; 2576.000;    0.000
 829.84;14220.000; 1932.000;    0.000
 829.99; 7960.000; 1964.000;    0.000
 830.13;11468.000; 2492.000;    0.000
 830.28;12032.000; 2684.000;    0.000
 830.43;15912.000; 2124.000;    0.000
 830.57;14064.000; 2040.000;    0.000
 830.72;12652.000; 2348.000;    0.000
 830.87;17036.000; 2368.000;    0.000
 831.01; 8808.000; 2104.000;    0.000
 831.16;10520.000; 2156.000;    0.000
 831.31; 9472.000; 2472.000;    0.000
 831.45;13364.000; 2604.000;    0.000
 831.60;14540.000; 2156.000;    0.000
 831.75;15380.000; 2132.000;    0.000
 831.89; 9092.000; 2244.000;    0.000
 832.04; 9588.000; 2620.000;    0.000
 832.19;11624.000; 1936.000;    0.000
 832.33; 9484.000; 1816.000;    0.000
 832.48;10476.000; 2356.000;    0.000
 832.63;14880.000; 2560.000;    0.000
 832.77; 6180.000; 1892.000;    0.000
 832.92; 9508.000; 1880.000;    0.000
 833.07;10940.000; 2120.000;    0.000
 833.21;15856.000; 2568.000;    0.000
 833.36; 8488.000; 1896.000;    0.000
 833.51;11600.000; 1904.000;    0.000
 833.65;10000.000; 2236.000;    0.000
 833.80;10248.000; 2464.000;    0.000
 833.95;14884.000; 1904.000;    0.000
 834.09;13128.000; 1884.000;    0.000
 834.24;14628.000; 2280.000;    0.000
 834.39;10032.000; 2684.000;    0.000
 834.53; 8960.000; 1796.000;    0.000
 834.68; 8824.000; 1808.000;    0.000
 834.82;17440.000; 2396.000;    0.000
 834.97;17172.000; 2596.000;    0.000
 835.12;12396.000; 2016.000;    0.000
 835.26;12372.000; 1936.000;    0.000
 835.41;13068.000; 2420.000;    0.000
 835.56;12584.000; 2636.000;    0.000
 835.70; 7216.000; 1900.000;    0.000
 835.85; 8524.000; 1884.000;    0.000
 836.00;14788.000; 2588.000;    0.000
 836.14;14208.000; 2580.000;    0.000
 836.29;10808.000; 1880.000;    0.000
 836.43;18040.000; 1880.000;    0.000
 836.58;15196.000; 2696.000;    0.000
 836.73;12712.000; 2592.000;    0.000
 836.87;16036.000; 2076.000;    0.000
 837.02;13484.000; 1912.000;    0.000
 837.17;14688.000; 2672.000;    0.000
 837.31;12440.000; 2440.000;    0.000
 837.46;15332.000; 1996.000;    0.000
 837.61; 6592.000; 1960.000;    0.000
 837.75;16748.000; 2640.000;    0.000
 837.90;13392.000; 2756.000;    0.000
 838.04; 8128.000; 1880.000;    0.000
 838.19;18168.000; 2072.000;    0.000
 838.34; 9888.000; 2696.000;    0.000
 838.48;13060.000; 2428.000;    0.000
 838.63;10128.000; 1952.000;    0.000
 838.77; 9532.000; 1876.000;    0.000
 838.92;18244.000; 2596.000;    0.000
 839.07;11952.000; 2672.000;    0.000
 839.21; 8896.000; 1864.000;    0.000
 839.36;14716.000; 1940.000;    0.000
 839.51;15548.000; 2428.000;    0.000
 839.65;15712.000; 2452.000;    0.000
 839.80; 8336.000; 1872.000;    0.000
 839.94;17136.000; 2008.000;    0.000
 840.09;12704.000; 2464.000;    0.000
 840.24;13304.000; 2376.000;    0.000
 840.38; 7076.000; 1748.000;    0.000
 840.53;11992.000; 1776.000;    0.000
 840.67; 8772.000; 2292.000;    0.000
 840.82;17916.000; 2704.000;    0.000
 840.97;14088.000; 1896.000;    0.000
 841.11; 8272.000; 1864.000;    0.000
 841.26;13992.000; 2252.000;    0.000
 841.40;12312.000; 2592.000;    0.000
 841.55;10632.000; 1908.000;    0.000
 841.70;10936.000; 1736.000;    0.000
 841.84;14376.000; 2256.000;    0.000
 841.99;18816.000; 2656.000;    0.000
 842.13;12084.000; 1932.000;    0.000
 842.28;11976.000; 1928.000;    0.000
 842.43;11824.000; 2228.000;    0.000
 842.57;16736.000; 2636.000;    0.000
 842.72;15336.000; 2088.000;    0.000
 842.86;10212.000; 1872.000;    0.000
 843.01;14280.000; 2440.000;    0.000
 843.15;11184.000; 2744.000;    0.000
 843.30;14268.000; 1912.000;    0.000
 843.45;17188.000; 1984.000;    0.000
 843.59;17644.000; 2396.000;    0.000
 843.74;13724.000; 2480.000;    0.000
 843.88;12420.000; 1904.000;    0.000
 844.03; 9396.000; 1896.000;    0.000
 844.18;10480.000; 2728.000;    0.000
 844.32;16484.000; 2576.000;    0.000
 844.47;14220.000; 1868.000;    0.000
 844.61; 8584.000; 1860.000;    0.000
 844.76;14632.000; 2568.000;    0.000
 844.90;16568.000; 2968.000;    0.000
 845.05;14480.000; 2008.000;    0.000
 845.20;13080.000; 1952.000;    0.000
 845.34;10948.000; 2372.000;    0.000
 845.49;13972.000; 3000.000;    0.000
 845.63;14968.000; 1960.000;    0.000
 845.78; 9424.000; 1864.000;    0.000
 845.92;15752.000; 2380.000;    0.000
 846.07;11912.000; 2484.000;    0.000
 846.21;10516.000; 1844.000;    0.000
 846.36;16188.000; 2028.000;    0.000
 846.51;12076.000; 2628.000;    0.000
 846.65;16140.000; 2536.000;    0.000
 846.80;11932.000; 1924.000;    0.000
 846.94;12828.000; 1948.000;    0.000
 847.09; 9508.000; 2364.000;    0.000
 847.23;11660.000; 2500.000;    0.000
 847.38;11140.000; 1956.000;    0.000
 847.53; 9944.000; 1816.000;    0.000
 847.67;11096.000; 2212.000;    0.000
 847.82;13704.000; 2700.000;    0.000
 847.96; 7496.000; 1952.000;    0.000
 848.11;14584.000; 1964.000;    0.000
 848.25;10476.000; 2560.000;    0.000
 848.40;12172.000; 2512.000;    0.000
 848.54; 6300.000; 1908.000;    0.000
 848.69;12656.000; 1948.000;    0.000
 848.83;21644.000; 2464.000;    0.000
 848.98;11412.000; 2556.000;    0.000
 849.13; 9188.000; 1864.000;    0.000
 849.27;16040.000; 1936.000;    0.000
 849.42; 9596.000; 2100.000;    0.000
 849.56;16612.000; 2872.000;    0.000
 849.71; 7540.000; 1896.000;    0.000
 849.85;11288.000; 1904.000;    0.000
 850.00;22836.000; 2496.000;    0.000
 850.14;19540.000; 2560.000;    0.000
 850.29;18080.000; 2120.000;    0.000
 850.43;14976.000; 1876.000;    0.000
 850.58;11944.000; 2536.000;    0.000
 850.72; 8448.000; 2760.000;    0.000
 850.87; 8960.000; 1852.000;    0.000
 851.02;10176.000; 1928.000;    0.000
 851.16;14896.000; 2640.000;    0.000
 851.31;15996.000; 2568.000;    0.000
 851.45;10360.000; 1860.000;    0.000
 851.60;13572.000; 1940.000;    0.000
 851.74;13128.000; 2520.000;    0.000
 851.89;12656.000; 2676.000;    0.000
 852.03; 7324.000; 1880.000;    0.000
 852.18; 9840.000; 1904.000;    0.000
 852.32; 9388.000; 2536.000;    0.000
 852.47;11752.000; 2456.000;    0.000
 852.61; 9996.000; 1920.000;    0.000
 852.76; 9292.000; 1844.000;    0.000
 852.90;13084.000; 2448.000;    0.000
 853.05;17836.000; 2796.000;    0.000
 853.19;10472.000; 1872.000;    0.000
 853.34;13656.000; 1908.000;    0.000
 853.48;11516.000; 2348.000;    0.000
 853.63;14336.000; 2672.000;    0.000
 853.77; 7216.000; 1896.000;    0.000
 853.92;11280.000; 1860.000;    0.000
 854.06;10864.000; 2184.000;    0.000
 854.21;13720.000; 2596.000;    0.000
 854.35; 8180.000; 1832.000;    0.000
 854.50;13320.000; 1892.000;    0.000
 854.64;13492.000; 2436.000;    0.000
 854.79;11612.000; 2484.000;    0.000
 854.93;11000.000; 1964.000;    0.000
 855.08;14828.000; 1924.000;    0.000
 855.22;16540.000; 2728.000;    0.000
 855.37;13564.000; 2516.000;    0.000
 855.51; 9144.000; 1856.000;    0.000
 855.66;11332.000; 1820.000;    0.000
 855.80;12144.000; 2444.000;    0.000
 855.95;10924.000; 2760.000;    0.000
 856.09;18164.000; 1916.000;    0.000
 856.24; 8616.000; 1884.000;    0.000
 856.38;11596.000; 2068.000;    0.000
 856.53;13860.000; 2336.000;    0.000
 856.67; 8764.000; 1840.000;    0.000
 856.82;11800.000; 1852.000;    0.000
 856.96; 8904.000; 2308.000;    0.000
 857.11;19032.000; 2656.000;    0.000
 857.25; 7524.000; 1784.000;    0.000
 857.40; 8436.000; 1808.000;    0.000
 857.54;16300.000; 2512.000;    0.000
 857.69;12224.000; 2248.000;    0.000
 857.83;11676.000; 1884.000;    0.000
 857.98;25532.000; 2044.000;    0.000
 858.12;10372.000; 2276.000;    0.000
 858.27;11724.000; 2588.000;    0.000
 858.41;10744.000; 1988.000;    0.000
 858.56;10116.000; 1864.000;    0.000
 858.70; 8804.000; 2220.000;    0.000
 858.85;10400.000; 2304.000;    0.000
 858.99; 6108.000; 1880.000;    0.000
 859.13;12264.000; 1756.000;    0.000
 859.28;14888.000; 2392.000;    0.000
 859.42;13704.000; 2540.000;    0.000
 859.57; 9556.000; 1936.000;    0.000
 859.71; 6732.000; 1772.000;    0.000
 859.86;15212.000; 2428.000;    0.000
 860.00;15476.000; 2276.000;    0.000
 860.15; 6148.000; 1872.000;    0.000
 860.29;11916.000; 1876.000;    0.000
 860.44;20248.000; 2388.000;    0.000
 860.58;19820.000; 3084.000;    0.000
 860.73;11128.000; 2100.000;    0.000
 860.87;14172.000; 1980.000;    0.000
 861.02; 9728.000; 2284.000;    0.000
 861.16;12752.000; 2804.000;    0.000
 861.30;12572.000; 1888.000;    0.000
 861.45; 8756.000; 1772.000;    0.000
 861.59; 8908.000; 2404.000;    0.000
 861.74;12512.000; 2380.000;    0.000
 861.88;11256.000; 1916.000;    0.000
 862.03; 9648.000; 1904.000;    0.000
 862.17;10732.000; 2516.000;    0.000
 862.32;10264.000; 2536.000;    0.000
 862.46;15296.000; 2044.000;    0.000
 862.60;11396.000; 1900.000;    0.000
 862.75;14764.000; 2612.000;    0.000
 862.89;12316.000; 2796.000;    0.000
 863.04; 9128.000; 1880.000;    0.000
 863.18;11104.000; 1912.000;    0.000
 863.33;11048.000; 2628.000;    0.000
 863.47;13516.000; 2732.000;    0.000
 863.62; 7696.000; 1936.000;    0.000
 863.76; 9080.000; 1908.000;    0.000
 863.90;16640.000; 2600.000;    0.000
 864.05;15300.000; 2616.000;    0.000
 864.19;18016.000; 2108.000;    0.000
 864.34; 8584.000; 1852.000;    0.000
 864.48;11172.000; 2500.000;    0.000
 864.63; 7896.000; 2412.000;    0.000
 864.77;10608.000; 1956.000;    0.000
 864.91;14628.000; 1944.000;    0.000
 865.06;11052.000; 2152.000;    0.000
 865.20;18612.000; 2440.000;    0.000
 865.35;11520.000; 1916.000;    0.000
 865.49;11472.000; 1900.000;    0.000
 865.64;12468.000; 2212.000;    0.000
 865.78;10632.000; 2792.000;    0.000
 865.92; 8104.000; 1852.000;    0.000
 866.07;15848.000; 1912.000;    0.000
 866.21;15004.000; 2308.000;    0.000
 866.36;20584.000; 2740.000;    0.000
 866.50;12768.000; 1848.000;    0.000
 866.65;19128.000; 2012.000;    0.000
 866.79; 9680.000; 2552.000;    0.000
 866.93;10192.000; 2580.000;    0.000
 867.08; 8980.000; 1832.000;    0.000
 867.22;20496.000; 2008.000;    0.000
 867.37;13324.000; 2728.000;    0.000
 867.51;14484.000; 2684.000;    0.000
 867.65;11692.000; 2072.000;    0.000
 867.80;16492.000; 1912.000;    0.000
 867.94;11920.000; 2248.000;    0.000
 868.09;13420.000; 2116.000;    0.000
 868.23;11276.000; 1980.000;    0.000
 868.37; 8836.000; 1944.000;    0.000
 868.52; 8936.000; 2256.000;    0.000
 868.66;11228.000; 2596.000;    0.000
 868.81; 8232.000; 1884.000;    0.000
 868.95;15392.000; 1872.000;    0.000
 869.09;10304.000; 2536.000;    0.000
 869.24;15844.000; 3140.000;    0.000
 869.38;15492.000; 1952.000;    0.000
 869.53;11588.000; 1868.000;    0.000
 869.67; 9492.000; 2164.000;    0.000
 869.81;14508.000; 2316.000;    0.000
 869.96;14248.000; 1892.000;    0.000
 870.10;16532.000; 2024.000;    0.000
 870.25;10616.000; 2676.000;    0.000
 870.39;11280.000; 2492.000;    0.000
 870.53; 9048.000; 1912.000;    0.000
 870.68; 9764.000; 1744.000;    0.000
 870.82; 9468.000; 2348.000;    0.000
 870.97;11312.000; 2400.000;    0.000
 871.11;16200.000; 1972.000;    0.000
 871.25;11200.000; 1840.000;    0.000
 871.40;13612.000; 2604.000;    0.000
 871.54;18484.000; 2620.000;    0.000
 871.68; 8828.000; 1788.000;    0.000
 871.83; 9296.000; 1780.000;    0.000
 871.97; 9880.000; 2544.000;    0.000
 872.12;13268.000; 2988.000;    0.000
 872.26; 9332.000; 1948.000;    0.000
 872.40; 8912.000; 1900.000;    0.000
 872.55; 9124.000; 2496.000;    0.000
 872.69;12784.000; 2680.000;    0.000
 872.83; 9208.000; 1944.000;    0.000
 872.98;10004.000; 1824.000;    0.000
 873.12; 9340.000; 2248.000;    0.000
 873.27;17716.000; 2432.000;    0.000
 873.41;11868.000; 1988.000;    0.000
 873.55;16436.000; 1916.000;    0.000
 873.70;13732.000; 2440.000;    0.000
 873.84;14096.000; 2388.000;    0.000
 873.98;10208.000; 1848.000;    0.000
 874.13;15216.000; 1912.000;    0.000
 874.27;12712.000; 2372.000;    0.000
 874.41;12880.000; 2552.000;    0.000
 874.56;22572.000; 2072.000;    0.000
 874.70; 7596.000; 1808.000;    0.000
 874.85;19988.000; 2776.000;    0.000
 874.99;13160.000; 2176.000;    0.000
 875.13; 8060.000; 1784.000;    0.000
 875.28;10592.000; 1800.000;    0.000
 875.42;18912.000; 2516.000;    0.000
 875.56;16228.000; 2512.000;    0.000
 875.71; 6984.000; 1876.000;    0.000
 875.85;17324.000; 2080.000;    0.000
 875.99;11484.000; 2368.000;    0.000
 876.14; 9948.000; 2388.000;    0.000
 876.28;17496.000; 2020.000;    0.000
 876.42; 6528.000; 1844.000;    0.000
 876.57;17068.000; 2264.000;    0.000
 876.71;12832.000; 2632.000;    0.000
 876.85;13732.000; 1944.000;    0.000
 877.00; 5104.000; 1844.000;    0.000
 877.14; 7536.000; 2280.000;    0.000
 877.28;17020.000; 2440.000;    0.000
 877.43;10868.000; 1868.000;    0.000
 877.57;11200.000; 1876.000;    0.000
 877.71; 9504.000; 2872.000;    0.000
 877.86;14436.000; 2548.000;    0.000
 878.00; 9264.000; 1900.000;    0.000
 878.14; 8496.000; 1864.000;    0.000
 878.29;10988.000; 2432.000;    0.000
 878.43;19860.000; 2700.000;    0.000
 878.57; 9800.000; 1920.000;    0.000
 878.72;10828.000; 1752.000;    0.000
 878.86;15012.000; 2456.000;    0.000
 879.00;10884.000; 2492.000;    0.000
 879.15; 9492.000; 1920.000;    0.000
 879.29; 9264.000; 1812.000;    0.000
 879.43; 9368.000; 2456.000;    0.000
 879.58;11028.000; 2264.000;    0.000
 879.72;13172.000; 1948.000;    0.000
 879.86;13536.000; 1852.000;    0.000
 880.01;21128.000; 2836.000;    0.000
 880.15;14396.000; 2552.000;    0.000
 880.29;13272.000; 2064.000;    0.000
 880.44; 9248.000; 1812.000;    0.000
 880.58; 8784.000; 2264.000;    0.000
 880.72;16032.000; 2548.000;    0.000
 880.87;14532.000; 1960.000;    0.000
 881.01; 6008.000; 1832.000;    0.000
 881.15;11716.000; 2540.000;    0.000
 881.29;14764.000; 2592.000;    0.000
 881.44; 7596.000; 1932.000;    0.000
 881.58;12384.000; 1816.000;    0.000
 881.72; 9840.000; 2412.000;    0.000
 881.87;13504.000; 2576.000;    0.000
 882.01;13412.000; 1892.000;    0.000
 882.15; 9696.000; 1836.000;    0.000
 882.30;11048.000; 2452.000;    0.000
 882.44;12024.000; 2724.000;    0.000
 882.58; 4620.000; 1728.000;    0.000
 882.73;18424.000; 1964.000;    0.000
 882.87;11152.000; 2292.000;    0.000
 883.01;13580.000; 2908.000;    0.000
 883.15; 9712.000; 1880.000;    0.000
 883.30; 9420.000; 1820.000;    0.000
 883.44;13636.000; 2724.000;    0.000
 883.58;12808.000; 2536.000;    0.000
 883.73;13964.000; 1912.000;    0.000
 883.87;12304.000; 1964.000;    0.000
 884.01;11240.000; 2376.000;    0.000
 884.15;14884.000; 2524.000;    0.000
 884.30;18044.000; 2056.000;    0.000
 884.44;12484.000; 1868.000;    0.000
 884.58;14336.000; 2320.000;    0.000
 884.73;15244.000; 2632.000;    0.000
 884.87; 8564.000; 1916.000;    0.000
 885.01;16624.000; 1920.000;    0.000
 885.15;14768.000; 2360.000;    0.000
 885.30;14512.000; 2712.000;    0.000
 885.44;11872.000; 1904.000;    0.000
 885.58;14788.000; 1852.000;    0.000
 885.73;11472.000; 2640.000;    0.000
 885.87;12112.000; 2532.000;    0.000
 886.01; 7708.000; 1828.000;    0.000
 886.15;17652.000; 1908.000;    0.000
 886.30;13264.000; 2344.000;    0.000
 886.44;11792.000; 2388.000;    0.000
 886.58; 8932.000; 1840.000;    0.000
 886.72;12216.000; 1764.000;    0.000
 886.87; 9244.000; 2180.000;    0.000
 887.01;14064.000; 2684.000;    0.000
 887.15; 9728.000; 1952.000;    0.000
 887.29;12764.000; 1852.000;    0.000
 887.44;10732.000; 2544.000;    0.000
 887.58;16364.000; 2696.000;    0.000
 887.72; 7836.000; 1856.000;    0.000
 887.87;10516.000; 1820.000;    0.000
 888.01;12884.000; 2408.000;    0.000
 888.15;15632.000; 2516.000;    0.000
 888.29;22132.000; 2092.000;    0.000
 888.44;14756.000; 1884.000;    0.000
 888.58;12508.000; 2220.000;    0.000
 888.72;12396.000; 2524.000;    0.000
 888.86;16412.000; 2112.000;    0.000
 889.01;20392.000; 2060.000;    0.000
 889.15;15372.000; 2384.000;    0.000
 889.29;13152.000; 2632.000;    0.000
 889.43; 9836.000; 1896.000;    0.000
 889.58;12216.000; 1928.000;    0.000
 889.72;13132.000; 2360.000;    0.000
 889.86;14912.000; 2852.000;    0.000
 890.00;11828.000; 1848.000;    0.000
 890.15;12004.000; 1888.000;    0.000
 890.29; 8124.000; 2424.000;    0.000
 890.43;12132.000; 2680.000;    0.000
 890.57;12964.000; 1936.000;    0.000
 890.72;10364.000; 1808.000;    0.000
 890.86;13504.000; 2532.000;    0.000
 891.00;10024.000; 2388.000;    0.000
 891.14;14500.000; 1892.000;    0.000
 891.28;14652.000; 2028.000;    0.000
 891.43;10496.000; 2568.000;    0.000
 891.57; 9704.000; 2376.000;    0.000
 891.71;11680.000; 1880.000;    0.000
 891.85;16492.000; 1908.000;    0.000
 892.00;13612.000; 2660.000;    0.000
 892.14;13168.000; 2636.000;    0.000
 892.28;15104.000; 2072.000;    0.000
 892.42;12772.000; 1936.000;    0.000
 892.57;12544.000; 2604.000;    0.000
 892.71; 8812.000; 2492.000;    0.000
 892.85;13172.000; 2012.000;    0.000
 892.99;14604.000; 1904.000;    0.000
 893.13;12300.000; 2796.000;    0.000
 893.28;11336.000; 2364.000;    0.000
 893.42; 8748.000; 1816.000;    0.000
 893.56;10568.000; 1968.000;    0.000
 893.70; 9424.000; 2156.000;    0.000
 893.84;18012.000; 2864.000;    0.000
 893.99;10088.000; 1984.000;    0.000
 894.13;14700.000; 2020.000;    0.000
 894.27; 9220.000; 2188.000;    0.000
 894.41;14700.000; 2520.000;    0.000
 894.56; 8316.000; 1988.000;    0.000
 894.70;14600.000; 1948.000;    0.000
 894.84;12108.000; 2564.000;    0.000
 894.98;14116.000; 2708.000;    0.000
 895.12;11312.000; 2036.000;    0.000
 895.27; 8852.000; 1856.000;    0.000
 895.41;13720.000; 2560.000;    0.000
 895.55; 9816.000; 2300.000;    0.000
 895.69;10372.000; 1908.000;    0.000
 895.83;17328.000; 1928.000;    0.000
 895.98; 9508.000; 2420.000;    0.000
 896.12;13836.000; 2396.000;    0.000
 896.26;16948.000; 2100.000;    0.000
 896.40;14812.000; 1972.000;    0.000
 896.54;11172.000; 2260.000;    0.000
 896.69;10480.000; 2240.000;    0.000
 896.83; 7360.000; 1932.000;    0.000
 896.97; 8460.000; 1804.000;    0.000
 897.11;10280.000; 2728.000;    0.000
 897.25;18860.000; 2320.000;    0.000
 897.39; 9060.000; 1856.000;    0.000
 897.54;13704.000; 1932.000;    0.000
 897.68;17744.000; 2396.000;    0.000
 897.82;13604.000; 2352.000;    0.000
 897.96;11148.000; 1888.000;    0.000
 898.10;11908.000; 1864.000;    0.000
 898.25;10916.000; 2588.000;    0.000
 898.39; 9820.000; 2396.000;    0.000
 898.53;12244.000; 1896.000;    0.000
 898.67;11748.000; 1912.000;    0.000
 898.81;10964.000; 2680.000;    0.000
 898.95;14632.000; 2812.000;    0.000
 899.10;13540.000; 2064.000;    0.000
 899.24;14348.000; 2024.000;    0.000
 899.38;12888.000; 2296.000;    0.000
 899.52;10504.000; 2436.000;    0.000
 899.66;14076.000; 2012.000;    0.000
 899.81;14592.000; 2000.000;    0.000
 899.95;16020.000; 2496.000;    0.000
 900.09; 9576.000; 2236.000;    0.000
 900.23;12000.000; 1976.000;    0.000
 900.37; 7732.000; 1832.000;    0.000
 900.51; 9348.000; 2416.000;    0.000
 900.65;16352.000; 2664.000;    0.000
 900.80; 9784.000; 1848.000;    0.000
 900.94; 9992.000; 1940.000;    0.000
 901.08;10356.000; 2436.000;    0.000
 901.22;11848.000; 2624.000;    0.000
 901.36;18184.000; 2012.000;    0.000
 901.50;16532.000; 1960.000;    0.000
 901.65; 8384.000; 2256.000;    0.000
 901.79;10792.000; 2608.000;    0.000
 901.93;12120.000; 1940.000;    0.000
 902.07;13924.000; 1900.000;    0.000
 902.21;10380.000; 2168.000;    0.000
 902.35;16980.000; 2596.000;    0.000
 902.50;18652.000; 1988.000;    0.000
 902.64;12992.000; 1924.000;    0.000
 902.78;13928.000; 2376.000;    0.000
 902.92;13656.000; 2428.000;    0.000
 903.06; 8352.000; 2024.000;    0.000
 903.20;13116.000; 1984.000;    0.000
 903.34;11784.000; 2216.000;    0.000
 903.49; 9812.000; 2360.000;    0.000
 903.63;11900.000; 1956.000;    0.000
 903.77; 7408.000; 2028.000;    0.000
 903.91;11164.000; 2660.000;    0.000
 904.05;13256.000; 2536.000;    0.000
 904.19;13004.000; 1784.000;    0.000
 904.33;12132.000; 1780.000;    0.000
 904.47; 9944.000; 2420.000;    0.000
 904.62;15296.000; 2256.000;    0.000
 904.76;12308.000; 1976.000;    0.000
 904.90;20548.000; 2096.000;    0.000
 905.04;15136.000; 2472.000;    0.000
 905.18; 9276.000; 2380.000;    0.000
 905.32;15352.000; 1972.000;    0.000
 905.46; 9164.000; 1912.000;    0.000
 905.60;14416.000; 2788.000;    0.000
 905.75;11804.000; 2752.000;    0.000
 905.89; 7892.000; 1904.000;    0.000
 906.03; 8512.000; 1864.000;    0.000
 906.17;11664.000; 2504.000;    0.000
 906.31;13344.000; 2760.000;    0.000
 906.45; 9336.000; 1892.000;    0.000
 906.59; 9880.000; 1968.000;    0.000
 906.73;13156.000; 2424.000;    0.000
 906.88;12640.000; 2432.000;    0.000
 907.02;10348.000; 1868.000;    0.000
 907.16;10344.000; 1864.000;    0.000
 907.30; 9512.000; 2320.000;    0.000
 907.44;12084.000; 2412.000;    0.000
 907.58;18688.000; 2052.000;    0.000
 907.72;14088.000; 1924.000;    0.000
 907.86;11316.000; 2300.000;    0.000
 908.00;10940.000; 2704.000;    0.000
 908.15;10892.000; 1968.000;    0.000
 908.29;11416.000; 1948.000;    0.000
 908.43;13020.000; 2284.000;    0.000
 908.57;14552.000; 2404.000;    0.000
 908.71;12860.000; 1988.000;    0.000
 908.85;16168.000; 1916.000;    0.000
 908.99;14952.000; 2552.000;    0.000
 909.13; 9872.000; 2484.000;    0.000
 909.27;10276.000; 1928.000;    0.000
 909.41;17004.000; 2004.000;    0.000
 909.56;15740.000; 2388.000;    0.000
 909.70;13308.000; 2580.000;    0.000
 909.84; 8588.000; 2012.000;    0.000
 909.98;11744.000; 1932.000;    0.000
 910.12; 9316.000; 2264.000;    0.000
 910.26;16900.000; 2768.000;    0.000
 910.40; 9456.000; 1864.000;    0.000
 910.54;14672.000; 1996.000;    0.000
 910.68;13524.000; 2740.000;    0.000
 910.82;16204.000; 2712.000;    0.000
 910.96; 9968.000; 1940.000;    0.000
 911.10;11152.000; 1896.000;    0.000
 911.25;17280.000; 2504.000;    0.000
 911.39;11084.000; 2592.000;    0.000
 911.53;12480.000; 1948.000;    0.000
 911.67;12116.000; 1888.000;    0.000
 911.81; 8312.000; 2208.000;    0.000
 911.95;14380.000; 2644.000;    0.000
 912.09; 7216.000; 1788.000;    0.000
 912.23;12536.000; 2032.000;    0.000
 912.37;16376.000; 2332.000;    0.000
 912.51;10436.000; 2352.000;    0.000
 912.65;18724.000; 2128.000;    0.000
 912.79;12064.000; 1960.000;    0.000
 912.93;12120.000; 2488.000;    0.000
 913.08;10076.000; 2672.000;    0.000
 913.22;10396.000; 1976.000;    0.000
 913.36;15096.000; 2056.000;    0.000
 913.50;19312.000; 2700.000;    0.000
 913.64;10780.000; 2540.000;    0.000
 913.78;13552.000; 1932.000;    0.000
 913.92;10912.000; 1888.000;    0.000
 914.06;14916.000; 2340.000;    0.000
 914.20;13868.000; 2432.000;    0.000
 914.34;10512.000; 1928.000;    0.000
 914.48; 8936.000; 1888.000;    0.000
 914.62; 7268.000; 2620.000;    0.000
 914.76;13996.000; 2444.000;    0.000
 914.90;10692.000; 1964.000;    0.000
 915.04;10948.000; 1932.000;    0.000
 915.18;14264.000; 2376.000;    0.000
 915.32; 9820.000; 2656.000;    0.000
 915.46; 7952.000; 2012.000;    0.000
 915.61;13656.000; 1960.000;    0.000
 915.75; 9800.000; 2508.000;    0.000
 915.89;10004.000; 2492.000;    0.000
 916.03;17068.000; 2084.000;    0.000
 916.17;11000.000; 1960.000;    0.000
 916.31;10036.000; 2492.000;    0.000
 916.45;11244.000; 2568.000;    0.000
 916.59; 8728.000; 1864.000;    0.000
 916.73;14076.000; 1924.000;    0.000
 916.87;10120.000; 2116.000;    0.000
 917.01;13932.000; 2348.000;    0.000
 917.15; 9772.000; 1956.000;    0.000
 917.29;11404.000; 1820.000;    0.000
 917.43;11196.000; 2272.000;    0.000
 917.57;12012.000; 2452.000;    0.000
 917.71;11208.000; 2040.000;    0.000
 917.85; 8544.000; 1928.000;    0.000
 917.99;11624.000; 2896.000;    0.000
 918.13;12516.000; 2496.000;    0.000
 918.27; 9968.000; 1920.000;    0.000
 918.41;17284.000; 1952.000;    0.000
 918.55;14904.000; 2312.000;    0.000
 918.69;12928.000; 2596.000;    0.000
 918.83;13776.000; 1932.000;    0.000
 918.97;15912.000; 1924.000;    0.000
 919.11;10640.000; 2348.000;    0.000
 919.25;10204.000; 2196.000;    0.000
 919.39; 9468.000; 1988.000;    0.000
 919.53;11480.000; 2036.000;    0.000
 919.67;11896.000; 2428.000;    0.000
 919.81;10624.000; 2500.000;    0.000
 919.95;24416.000; 2132.000;    0.000
 920.09;16044.000; 1984.000;    0.000
 920.23; 9376.000; 2552.000;    0.000
 920.37;16032.000; 2876.000;    0.000
 920.51;16936.000; 1988.000;    0.000
 920.65;16152.000; 2032.000;    0.000
 920.79;16976.000; 2640.000;    0.000
 920.93; 8940.000; 2492.000;    0.000
 921.07;12608.000; 1944.000;    0.000
 921.21;13556.000; 1932.000;    0.000
 921.35; 9596.000; 2412.000;    0.000
 921.49;11668.000; 2476.000;    0.000
 921.63;16980.000; 2060.000;    0.000
 921.77;17420.000; 1976.000;    0.000
 921.91; 9168.000; 2052.000;    0.000
 922.05;13056.000; 2644.000;    0.000
 922.19;11972.000; 2016.000;    0.000
 922.33; 8412.000; 1960.000;    0.000
 922.47;13500.000; 2724.000;    0.000
 922.61;13760.000; 2740.000;    0.000
 922.75;14316.000; 2052.000;    0.000
 922.89;13876.000; 1972.000;    0.000
 923.03;10412.000; 2504.000;    0.000
 923.17;12104.000; 2312.000;    0.000
 923.31;14544.000; 2052.000;    0.000
 923.45;12340.000; 1940.000;    0.000
 923.59;19320.000; 2508.000;    0.000
 923.73; 8772.000; 2740.000;    0.000
 923.87;12416.000; 2020.000;    0.000
 924.01;14336.000; 1888.000;    0.000
 924.15;12096.000; 2604.000;    0.000
 924.29;10992.000; 2788.000;    0.000
 924.43;11668.000; 1964.000;    0.000
 924.57;11404.000; 1896.000;    0.000
 924.71;13904.000; 2316.000;    0.000
 924.85;16808.000; 2516.000;    0.000
 924.99;16276.000; 1972.000;    0.000
 925.13; 7232.000; 1932.000;    0.000
 925.27;16532.000; 2320.000;    0.000
 925.41;13840.000; 2492.000;    0.000
 925.55; 8068.000; 1924.000;    0.000
 925.69;13024.000; 1996.000;    0.000
 925.83;12024.000; 2264.000;    0.000
 925.97;12364.000; 2404.000;    0.000
 926.11;10760.000; 1944.000;    0.000
 926.25;14508.000; 1952.000;    0.000
 926.39;11864.000; 2712.000;    0.000
 926.53;11024.000; 2344.000;    0.000
 926.67;12376.000; 1932.000;    0.000
 926.81; 7016.000; 1936.000;    0.000
 926.95;10892.000; 2352.000;    0.000
 927.09;11308.000; 2452.000;    0.000
 927.23; 9452.000; 1976.000;    0.000
 927.36;17624.000; 2016.000;    0.000
 927.50;10048.000; 2176.000;    0.000
 927.64; 7048.000; 2268.000;    0.000
 927.78; 6392.000; 1872.000;    0.000
 927.92;10268.000; 1932.000;    0.000
 928.06;11752.000; 2436.000;    0.000
 928.20;18408.000; 2480.000;    0.000
 928.34;19036.000; 2156.000;    0.000
 928.48;13220.000; 2020.000;    0.000
 928.62;18472.000; 2584.000;    0.000
 928.76;18152.000; 2964.000;    0.000
 928.90;18188.000; 2044.000;    0.000
 929.04;11984.000; 2004.000;    0.000
 929.18;10028.000; 2268.000;    0.000
 929.32; 8364.000; 2360.000;    0.000
 929.46;15348.000; 1952.000;    0.000
 929.60;12188.000; 1836.000;    0.000
 929.74; 7504.000; 2492.000;    0.000
 929.87;16752.000; 2456.000;    0.000
 930.01; 6824.000; 1912.000;    0.000
 930.15; 8244.000; 1856.000;    0.000
 930.29;11000.000; 2188.000;    0.000
 930.43;14248.000; 2388.000;    0.000
 930.57;13900.000; 2184.000;    0.000
 930.71;11584.000; 1844.000;    0.000
 930.85;10836.000; 2304.000;    0.000
 930.99;11160.000; 2560.000;    0.000
 931.13; 5228.000; 1900.000;    0.000
 931.27;13868.000; 2052.000;    0.000
 931.41;10560.000; 2404.000;    0.000
 931.55;17784.000; 2732.000;    0.000
 931.68; 7668.000; 1836.000;    0.000
 931.82;12376.000; 1916.000;    0.000
 931.96;13756.000; 2580.000;    0.000
 932.10;17424.000; 2660.000;    0.000
 932.24;11524.000; 2092.000;    0.000
 932.38;10300.000; 1960.000;    0.000
 932.52;13276.000; 2580.000;    0.000
 932.66; 9372.000; 2716.000;    0.000
 932.80;12864.000; 2000.000;    0.000
 932.94;14728.000; 2032.000;    0.000
 933.08;10144.000; 2232.000;    0.000
 933.22;10564.000; 2868.000;    0.000
 933.35;10176.000; 2032.000;    0.000
 933.49;12068.000; 2040.000;    0.000
 933.63;13836.000; 2396.000;    0.000
 933.77;18824.000; 2864.000;    0.000
 933.91;14452.000; 1992.000;    0.000
 934.05;17116.000; 2048.000;    0.000
 934.19;12644.000; 2544.000;    0.000
 934.33;17752.000; 2644.000;    0.000
 934.47; 9068.000; 1876.000;    0.000
 934.61; 9520.000; 2000.000;    0.000
 934.74; 7680.000; 2280.000;    0.000
 934.88;12284.000; 2612.000;    0.000
 935.02; 8600.000; 1896.000;    0.000
 935.16;14632.000; 1984.000;    0.000
 935.30;11268.000; 2644.000;    0.000
 935.44;16420.000; 2588.000;    0.000
 935.58; 8580.000; 1820.000;    0.000
 935.72;17800.000; 2072.000;    0.000
 935.86;10916.000; 2536.000;    0.000
 935.99; 8056.000; 2664.000;    0.000
 936.13; 8248.000; 1856.000;    0.000
 936.27;14236.000; 2048.000;    0.000
 936.41;11820.000; 2328.000;    0.000
 936.55;24664.000; 2744.000;    0.000
 936.69; 8944.000; 1924.000;    0.000
 936.83; 7596.000; 1808.000;    0.000
 936.97;11812.000; 2428.000;    0.000
 937.10;10908.000; 2488.000;    0.000
 937.24;11368.000; 2012.000;    0.000
 937.38;11216.000; 1948.000;    0.000
 937.52;10120.000; 2284.000;    0.000
 937.66;31364.000; 3264.000;    0.000
 937.80;10592.000; 1980.000;    0.000
 937.94;13464.000; 1868.000;    0.000
 938.08;17244.000; 2552.000;    0.000
 938.21;14840.000; 2700.000;    0.000
 938.35;11292.000; 1988.000;    0.000
 938.49;11704.000; 1936.000;    0.000
 938.63;17760.000; 2552.000;    0.000
 938.77;14472.000; 2416.000;    0.000
 938.91;18216.000; 2144.000;    0.000
 939.05;14092.000; 2080.000;    0.000
 939.18;11184.000; 2524.000;    0.000
 939.32;15564.000; 2468.000;    0.000
 939.46;15480.000; 1972.000;    0.000
 939.60;12856.000; 1888.000;    0.000
 939.74;13348.000; 2296.000;    0.000
 939.88;19020.000; 2896.000;    0.000
 940.02;12204.000; 1916.000;    0.000
 940.15;13664.000; 1960.000;    0.000
 940.29;16332.000; 2980.000;    0.000
 940.43;18392.000; 2500.000;    0.000
 940.57;12828.000; 1972.000;    0.000
 940.71;10340.000; 1884.000;    0.000
 940.85;20904.000; 2920.000;    0.000
 940.98;12268.000; 2432.000;    0.000
 941.12; 8684.000; 1952.000;    0.000
 941.26;15440.000; 2092.000;    0.000
 941.40;17092.000; 2548.000;    0.000
 941.54;10152.000; 2384.000;    0.000
 941.68; 9536.000; 1880.000;    0.000
 941.82;13652.000; 1980.000;    0.000
 941.95;16840.000; 2436.000;    0.000
 942.09; 9780.000; 2368.000;    0.000
 942.23;11744.000; 1896.000;    0.000
 942.37;16664.000; 2012.000;    0.000
 942.51;14816.000; 2684.000;    0.000
 942.65;13248.000; 2416.000;    0.000
 942.78;10260.000; 2036.000;    0.000
 942.92;12084.000; 1944.000;    0.000
 943.06;13644.000; 2476.000;    0.000
 943.20;14604.000; 2280.000;    0.000
 943.34;14552.000; 2080.000;    0.000
 943.47;13808.000; 2080.000;    0.000
 943.61;11188.000; 2388.000;    0.000
 943.75;20828.000; 2956.000;    0.000
 943.89; 9960.000; 1872.000;    0.000
 944.03; 7600.000; 1812.000;    0.000
 944.17;10072.000; 2204.000;    0.000
 944.30;13388.000; 2556.000;    0.000
 944.44;14508.000; 2056.000;    0.000
 944.58;14168.000; 1960.000;    0.000
 944.72;14144.000; 2400.000;    0.000
 944.86;11632.000; 2564.000;    0.000
 944.99;11832.000; 1868.000;    0.000
 945.13; 5920.000; 2004.000;    0.000
 945.27;11900.000; 2776.000;    0.000
 945.41;24416.000; 2540.000;    0.000
 945.55; 7604.000; 1896.000;    0.000
 945.68;10924.000; 2020.000;    0.000
 945.82;13332.000; 2512.000;    0.000
 945.96;21708.000; 2884.000;    0.000
 946.10;13704.000; 2088.000;    0.000
 946.24;18864.000; 2080.000;    0.000
 946.37;14816.000; 2688.000;    0.000
 946.51;15948.000; 2884.000;    0.000
 946.65; 7868.000; 1880.000;    0.000
 946.79;15532.000; 2060.000;    0.000
 946.93;14848.000; 2452.000;    0.000
 947.06;10776.000; 2704.000;    0.000
 947.20;11028.000; 1964.000;    0.000
 947.34;11488.000; 1884.000;    0.000
 947.48;15456.000; 2260.000;    0.000
 947.62;15820.000; 2456.000;    0.000
 947.75;10028.000; 1876.000;    0.000
 947.89;15488.000; 1916.000;    0.000
 948.03;13728.000; 2564.000;    0.000
 948.17;12680.000; 2496.000;    0.000
 948.31;15828.000; 1964.000;    0.000
 948.44;15128.000; 1952.000;    0.000
 948.58;10652.000; 2300.000;    0.000
 948.72;13100.000; 2472.000;    0.000
 948.86;11628.000; 2052.000;    0.000
 948.99;10592.000; 1904.000;    0.000
 949.13;15692.000; 2652.000;    0.000
 949.27;12088.000; 2864.000;    0.000
 949.41;13824.000; 1936.000;    0.000
 949.55;10172.000; 1960.000;    0.000
 949.68; 9212.000; 2624.000;    0.000
 949.82;14076.000; 2784.000;    0.000
 949.96;12604.000; 2016.000;    0.000
 950.10;15248.000; 2068.000;    0.000
 950.23;17988.000; 2556.000;    0.000
 950.37;15552.000; 2592.000;    0.000
 950.51;11200.000; 2180.000;    0.000
 950.65;11052.000; 1948.000;    0.000
 950.78; 6680.000; 2456.000;    0.000
 950.92;10596.000; 2572.000;    0.000
 951.06; 7104.000; 2008.000;    0.000
 951.20;10244.000; 1948.000;    0.000
 951.33;15268.000; 2396.000;    0.000
 951.47;15208.000; 2912.000;    0.000
 951.61;10152.000; 2080.000;    0.000
 951.75;13288.000; 1952.000;    0.000
 951.89; 8784.000; 2288.000;    0.000
 952.02;12672.000; 2184.000;    0.000
 952.16; 8088.000; 2032.000;    0.000
 952.30;17656.000; 1972.000;    0.000
 952.44;10740.000; 3048.000;    0.000
 952.57;13468.000; 2460.000;    0.000
 952.71; 6816.000; 1912.000;    0.000
 952.85;11544.000; 1976.000;    0.000
 952.99;11248.000; 2284.000;    0.000
 953.12;12588.000; 2584.000;    0.000
 953.26; 8488.000; 1884.000;    0.000
 953.40;15596.000; 2068.000;    0.000
 953.53;12456.000; 2604.000;    0.000
 953.67;17940.000; 2920.000;    0.000
 953.81;15172.000; 1964.000;    0.000
 953.95; 9840.000; 1944.000;    0.000
 954.08;14036.000; 2324.000;    0.000
 954.22;10676.000; 2660.000;    0.000
 954.36;17788.000; 2060.000;    0.000
 954.50;13264.000; 1968.000;    0.000
 954.63;14284.000; 2620.000;    0.000
 954.77;12024.000; 2520.000;    0.000
 954.91; 9180.000; 1976.000;    0.000
 955.05;13464.000; 1948.000;    0.000
 955.18;13816.000; 2704.000;    0.000
 955.32;21436.000; 2636.000;    0.000
 955.46; 8600.000; 1912.000;    0.000
 955.59;11848.000; 1960.000;    0.000
 955.73;15180.000; 2672.000;    0.000
 955.87; 9312.000; 2516.000;    0.000
 956.01;11768.000; 1956.000;    0.000
 956.14;13072.000; 2040.000;    0.000
 956.28;12220.000; 2836.000;    0.000
 956.42;13688.000; 2712.000;    0.000
 956.55;11512.000; 2024.000;    0.000
 956.69;11496.000; 1900.000;    0.000
 956.83;11900.000; 2344.000;    0.000
 956.97;23216.000; 2792.000;    0.000
 957.10;10148.000; 1920.000;    0.000
 957.24;21068.000; 2164.000;    0.000
 957.38;12644.000; 2232.000;    0.000
 957.51;15164.000; 2536.000;    0.000
 957.65; 9344.000; 1936.000;    0.000
 957.79;11624.000; 1988.000;    0.000
 957.93;10872.000; 2212.000;    0.000
 958.06;10100.000; 2560.000;    0.000
 958.20;12880.000; 1944.000;    0.000
 958.34; 9448.000; 1948.000;    0.000
 958.47; 9264.000; 2408.000;    0.000
 958.61;11420.000; 2728.000;    0.000
 958.75;10648.000; 1984.000;    0.000
 958.88;13308.000; 1900.000;    0.000
 959.02;14256.000; 2708.000;    0.000
 959.16;14660.000; 3156.000;    0.000
 959.30; 9416.000; 2016.000;    0.000
 959.43;11272.000; 1848.000;    0.000
 959.57; 9036.000; 2340.000;    0.000
 959.71;14668.000; 2404.000;    0.000
 959.84; 8500.000; 1904.000;    0.000
 959.98; 7800.000; 1880.000;    0.000
 960.12;10560.000; 2308.000;    0.000
 960.25;11596.000; 2508.000;    0.000
 960.39; 5184.000; 1880.000;    0.000
 960.53;10948.000; 1836.000;    0.000
 960.66;11248.000; 2464.000;    0.000
 960.80;10264.000; 2248.000;    0.000
 960.94; 8456.000; 1888.000;    0.000
 961.07;14628.000; 1916.000;    0.000
 961.21;15228.000; 2448.000;    0.000
 961.35;12456.000; 2708.000;    0.000
 961.48;11656.000; 1900.000;    0.000
 961.62;10036.000; 1956.000;    0.000
 961.76;13056.000; 2368.000;    0.000
 961.89;16040.000; 2588.000;    0.000
 962.03;12196.000; 2032.000;    0.000
 962.17;16348.000; 2012.000;    0.000
 962.30;17556.000; 2644.000;    0.000
 962.44;11492.000; 2464.000;    0.000
 962.58;15204.000; 1944.000;    0.000
 962.71;11012.000; 1768.000;    0.000
 962.85;11416.000; 2340.000;    0.000
 962.99;14696.000; 2228.000;    0.000
 963.12;11008.000; 1944.000;    0.000
 963.26;14588.000; 1956.000;    0.000
 963.40; 8616.000; 2588.000;    0.000
 963.53;10564.000; 2528.000;    0.000
 963.67; 8016.000; 1924.000;    0.000
 963.81; 9324.000; 1836.000;    0.000
 963.94;11328.000; 2144.000;    0.000
 964.08;10412.000; 2272.000;    0.000
 964.22; 9824.000; 1876.000;    0.000
 964.35;10468.000; 1928.000;    0.000
 964.49;19632.000; 2532.000;    0.000
 964.63;14828.000; 2608.000;    0.000
 964.76;12984.000; 1980.000;    0.000
 964.90; 8036.000; 1912.000;    0.000
 965.04;12508.000; 2640.000;    0.000
 965.17;12500.000; 2424.000;    0.000
 965.31;14664.000; 2092.000;    0.000
 965.44;11504.000; 1952.000;    0.000
 965.58;12168.000; 2340.000;    0.000
 965.72;10900.000; 2544.000;    0.000
 965.85;11948.000; 1976.000;    0.000
 965.99; 9976.000; 1872.000;    0.000
 966.13;11320.000; 2508.000;    0.000
 966.26;17860.000; 2280.000;    0.000
 966.40;11636.000; 2004.000;    0.000
 966.54;11156.000; 1900.000;    0.000
 966.67; 7640.000; 2208.000;    0.000
 966.81;16156.000; 2724.000;    0.000
 966.94;14100.000; 1968.000;    0.000
 967.08;12428.000; 2056.000;    0.000
 967.22;16164.000; 2284.000;    0.000
 967.35; 8568.000; 2584.000;    0.000
 967.49;17596.000; 2104.000;    0.000
 967.63;13204.000; 1892.000;    0.000
 967.76;16352.000; 2472.000;    0.000
 967.90;17896.000; 2464.000;    0.000
 968.03;12044.000; 1908.000;    0.000
 968.17;11808.000; 1964.000;    0.000
 968.31;15180.000; 2444.000;    0.000
 968.44;20208.000; 2544.000;    0.000
 968.58; 9484.000; 1876.000;    0.000
 968.71; 8556.000; 1852.000;    0.000
 968.85;17832.000; 2676.000;    0.000
 968.99; 9668.000; 2388.000;    0.000
 969.12;12000.000; 2048.000;    0.000
 969.26;13436.000; 1948.000;    0.000
 969.40; 9624.000; 2372.000;    0.000
 969.53; 9620.000; 2472.000;    0.000
 969.67; 9084.000; 1872.000;    0.000
 969.80;11524.000; 1844.000;    0.000
 969.94; 9152.000; 2292.000;    0.000
 970.08;13096.000; 2296.000;    0.000
 970.21;11624.000; 1884.000;    0.000
 970.35; 7312.000; 1876.000;    0.000
 970.48; 9656.000; 2448.000;    0.000
 970.62;12876.000; 2508.000;    0.000
 970.76;19564.000; 2132.000;    0.000
 970.89;11684.000; 1844.000;    0.000
 971.03;12864.000; 2344.000;    0.000
 971.16;16712.000; 2296.000;    0.000
 971.30; 9500.000; 1976.000;    0.000
 971.43; 8880.000; 1920.000;    0.000
 971.57;15672.000; 2552.000;    0.000
 971.71;10976.000; 2512.000;    0.000
 971.84;16248.000; 1956.000;    0.000
 971.98;10412.000; 2008.000;    0.000
 972.11;16848.000; 2440.000;    0.000
 972.25;14052.000; 2292.000;    0.000
 972.39;12776.000; 1872.000;    0.000
 972.52;10036.000; 1896.000;    0.000
 972.66;11368.000; 2392.000;    0.000
 972.79;12188.000; 2420.000;    0.000
 972.93;21280.000; 2152.000;    0.000
 973.06;14396.000; 1956.000;    0.000
 973.20;16452.000; 2584.000;    0.000
 973.34;16808.000; 2244.000;    0.000
 973.47; 8224.000; 1952.000;    0.000
 973.61;11472.000; 2008.000;    0.000
 973.74;11460.000; 2468.000;    0.000
 973.88;10060.000; 2424.000;    0.000
 974.01;11884.000; 1996.000;    0.000
 974.15;14560.000; 1968.000;    0.000
 974.29;15144.000; 2480.000;    0.000
 974.42;14772.000; 2484.000;    0.000
 974.56;13804.000; 2052.000;    0.000
 974.69; 5832.000; 1740.000;    0.000
 974.83;13260.000; 2232.000;    0.000
 974.96;13956.000; 2296.000;    0.000
 975.10;14008.000; 1992.000;    0.000
 975.24; 8368.000; 1804.000;    0.000
 975.37;12660.000; 2516.000;    0.000
 975.51;10964.000; 2504.000;    0.000
 975.64; 9908.000; 1932.000;    0.000
 975.78;16632.000; 2028.000;    0.000
 975.91;12520.000; 2200.000;    0.000
 976.05; 9984.000; 2284.000;    0.000
 976.18;10356.000; 1920.000;    0.000
 976.32;13848.000; 1960.000;    0.000
 976.45;15316.000; 2240.000;    0.000
 976.59;15692.000; 2608.000;    0.000
 976.73;15288.000; 2024.000;    0.000
 976.86;12392.000; 1940.000;    0.000
 977.00;13964.000; 2504.000;    0.000
 977.13;16752.000; 2740.000;    0.000
 977.27;10788.000; 1928.000;    0.000
 977.40;16256.000; 2028.000;    0.000
 977.54;12660.000; 2376.000;    0.000
 977.67;10396.000; 2360.000;    0.000
 977.81; 7096.000; 1884.000;    0.000
 977.94;11152.000; 1908.000;    0.000
 978.08;15864.000; 2480.000;    0.000
 978.21;13952.000; 2612.000;    0.000
 978.35;16848.000; 2012.000;    0.000
 978.49; 8868.000; 1872.000;    0.000
 978.62; 9764.000; 2568.000;    0.000
 978.76;13892.000; 2368.000;    0.000
 978.89; 9196.000; 1984.000;    0.000
 979.03; 7820.000; 1876.000;    0.000
 979.16;11244.000; 2456.000;    0.000
 979.30;14896.000; 2744.000;    0.000
 979.43;14328.000; 2052.000;    0.000
 979.57;12356.000; 1992.000;    0.000
 979.70;10196.000; 2088.000;    0.000
 979.84;14168.000; 2212.000;    0.000
 979.97; 8120.000; 1864.000;    0.000
 980.11;10312.000; 1876.000;    0.000
 980.24;13664.000; 2788.000;    0.000
 980.38;15188.000; 2756.000;    0.000
 980.51;13364.000; 1952.000;    0.000
 980.65;17644.000; 2072.000;    0.000
 980.78;13592.000; 2428.000;    0.000
 980.92;15160.000; 2488.000;    0.000
 981.05; 8320.000; 1880.000;    0.000
 981.19; 7764.000; 1936.000;    0.000
 981.32;11656.000; 2280.000;    0.000
 981.46;17368.000; 2580.000;    0.000
 981.59;10132.000; 1952.000;    0.000
 981.73;10136.000; 1920.000;    0.000
 981.86;11508.000; 2280.000;    0.000
 982.00;10764.000; 2316.000;    0.000
 982.13;15528.000; 1932.000;    0.000
 982.27;16968.000; 2052.000;    0.000
 982.40;15884.000; 2556.000;    0.000
 982.54;17496.000; 2508.000;    0.000
 982.67;10048.000; 1944.000;    0.000
 982.81;13504.000; 2020.000;    0.000
 982.94;12076.000; 2456.000;    0.000
 983.08;11152.000; 2564.000;    0.000
 983.21;12004.000; 1996.000;    0.000
 983.35;11288.000; 1988.000;    0.000
 983.48;14684.000; 2800.000;    0.000
 983.62;17540.000; 2476.000;    0.000
 983.75;11368.000; 1992.000;    0.000
 983.89;20728.000; 2128.000;    0.000
 984.02;16292.000; 2672.000;    0.000
 984.16;14100.000; 2392.000;    0.000
 984.29;12244.000; 2112.000;    0.000
 984.43;15352.000; 1896.000;    0.000
 984.56;12960.000; 2528.000;    0.000
 984.70;17264.000; 2968.000;    0.000
 984.83;21108.000; 2152.000;    0.000
 984.97;10284.000; 1812.000;    0.000
 985.10;10820.000; 2684.000;    0.000
 985.23;15260.000; 2732.000;    0.000
 985.37; 8432.000; 1836.000;    0.000
 985.50;13168.000; 1948.000;    0.000
 985.64;16256.000; 2576.000;    0.000
 985.77;10552.000; 2516.000;    0.000
 985.91; 8968.000; 1912.000;    0.000
 986.04;16052.000; 2000.000;    0.000
 986.18;14400.000; 2544.000;    0.000
 986.31;12864.000; 2736.000;    0.000
 986.45; 9368.000; 1992.000;    0.000
 986.58;12948.000; 2000.000;    0.000
 986.72;14528.000; 2568.000;    0.000
 986.85;11528.000; 2064.000;    0.000
 986.98; 8992.000; 1920.000;    0.000
 987.12;11284.000; 1984.000;    0.000
 987.25;11696.000; 2564.000;    0.000
 987.39; 9452.000; 2356.000;    0.000
 987.52;17336.000; 2044.000;    0.000
 987.66;15436.000; 1944.000;    0.000
 987.79;14368.000; 2508.000;    0.000
 987.93;15820.000; 2864.000;    0.000
 988.06;10776.000; 1996.000;    0.000
 988.19;14444.000; 1964.000;    0.000
 988.33;14100.000; 2252.000;    0.000
 988.46;16248.000; 2528.000;    0.000
 988.60;16468.000; 2092.000;    0.000
 988.73; 9720.000; 1916.000;    0.000
 988.87;10844.000; 2532.000;    0.000
 989.00; 7776.000; 2432.000;    0.000
 989.14;10392.000; 1948.000;    0.000
 989.27;12404.000; 1932.000;    0.000
 989.40; 9848.000; 2512.000;    0.000
 989.54; 8568.000; 2556.000;    0.000
 989.67;10324.000; 1888.000;    0.000
 989.81;14024.000; 1920.000;    0.000
 989.94;12420.000; 2292.000;    0.000
 990.08;18092.000; 2504.000;    0.000
 990.21;16996.000; 1944.000;    0.000
 990.34; 8792.000; 1900.000;    0.000
 990.48; 9940.000; 2396.000;    0.000
 990.61;14380.000; 2448.000;    0.000
 990.75;15252.000; 2124.000;    0.000
 990.88;21120.000; 1968.000;    0.000
 991.02;10396.000; 2004.000;    0.000
 991.15;10680.000; 2960.000;    0.000
 991.28; 8564.000; 1868.000;    0.000
 991.42;12736.000; 1856.000;    0.000
 991.55;10400.000; 2316.000;    0.000
 991.69;10148.000; 2292.000;    0.000
 991.82;12956.000; 1976.000;    0.000
 991.95;11348.000; 1904.000;    0.000
 992.09; 8600.000; 2156.000;    0.000
 992.22;15128.000; 2680.000;    0.000
 992.36;10204.000; 1992.000;    0.000
 992.49;12412.000; 1860.000;    0.000
 992.62;12552.000; 2512.000;    0.000
 992.76;10292.000; 2348.000;    0.000
 992.89; 7488.000; 1924.000;    0.000
 993.03; 7872.000; 1988.000;    0.000
 993.16;17732.000; 2156.000;    0.000
 993.29;19548.000; 2260.000;    0.000
 993.43; 7932.000; 2024.000;    0.000
 993.56;12024.000; 2028.000;    0.000
 993.70;11144.000; 2816.000;    0.000
 993.83;12892.000; 2580.000;    0.000
 993.96;16864.000; 2100.000;    0.000
 994.10; 8376.000; 1844.000;    0.000
 994.23; 9228.000; 2524.000;    0.000
 994.37;15304.000; 2456.000;    0.000
 994.50;14344.000; 1976.000;    0.000
 994.63;10536.000; 2020.000;    0.000
 994.77; 7612.000; 2408.000;    0.000
 994.90;17804.000; 2744.000;    0.000
 995.04;21132.000; 2136.000;    0.000
 995.17;10108.000; 1892.000;    0.000
 995.30;21692.000; 2512.000;    0.000
 995.44;15588.000; 2292.000;    0.000
 995.57;12040.000; 2036.000;    0.000
 995.70;10152.000; 1912.000;    0.000
 995.84; 9168.000; 2608.000;    0.000
 995.97;15468.000; 2436.000;    0.000
 996.11;13352.000; 1908.000;    0.000
 996.24;12936.000; 1864.000;    0.000
 996.37;15848.000; 2548.000;    0.000
 996.51;12116.000; 2356.000;    0.000
 996.64;19220.000; 2132.000;    0.000
 996.77;10316.000; 1876.000;    0.000
 996.91; 8820.000; 2320.000;    0.000
 997.04;15644.000; 2488.000;    0.000
 997.18;11740.000; 1848.000;    0.000
 997.31; 9388.000; 1864.000;    0.000
 997.44;15800.000; 2432.000;    0.000
 997.58;12420.000; 2600.000;    0.000
 997.71; 9692.000; 1916.000;    0.000
 997.84;14228.000; 1960.000;    0.000
 997.98;11208.000; 2592.000;    0.000
 998.11;17312.000; 2332.000;    0.000
 998.24;19620.000; 2132.000;    0.000
 998.38;11932.000; 1972.000;    0.000
 998.51;15816.000; 2328.000;    0.000
 998.64;14920.000; 2712.000;    0.000
 998.78; 9104.000; 1820.000;    0.000
 998.91; 9632.000; 1972.000;    0.000
 999.04;16224.000; 2372.000;    0.000
 999.18;15188.000; 2512.000;    0.000
 999.31; 9388.000; 1920.000;    0.000
 999.45;11324.000; 2048.000;    0.000
 999.58;19832.000; 2496.000;    0.000
 999.71;15124.000; 2576.000;    0.000
 999.85;15308.000; 2064.000;    0.000
 999.98;11728.000; 1940.000;    0.000
1000.11;14224.000;    0.000;    0.000
1000.25;10600.000;    0.000;    0.000
1000.38;14780.000;    0.000;    0.000
1000.51;11980.000;    0.000;    0.000
1000.65;14808.000;    0.000;    0.000
1000.78;11812.000;    0.000;    0.000
1000.91;10408.000;    0.000;    0.000
1001.05; 9944.000;    0.000;    0.000
1001.18;10800.000;    0.000;    0.000
1001.31;13404.000;    0.000;    0.000
1001.45;14600.000;    0.000;    0.000
1001.58;13828.000;    0.000;    0.000
1001.71;18256.000;    0.000;    0.000
1001.85;17532.000;    0.000;    0.000
1001.98; 8520.000;    0.000;    0.000
1002.11;14364.000;    0.000;    0.000
1002.24;15560.000;    0.000;    0.000
1002.38;13316.000;    0.000;    0.000
1002.51;12860.000;    0.000;    0.000
1002.64; 6120.000;    0.000;    0.000
1002.78;13444.000;    0.000;    0.000
1002.91; 7884.000;    0.000;    0.000
1003.04;12484.000;    0.000;    0.000
1003.18; 9756.000;    0.000;    0.000
1003.31;14224.000;    0.000;    0.000
1003.44; 9888.000;    0.000;    0.000
1003.58;13924.000;    0.000;    0.000
1003.71; 8444.000;    0.000;    0.000
1003.84; 7476.000;    0.000;    0.000
1003.98;10948.000;    0.000;    0.000
1004.11; 8952.000;    0.000;    0.000
1004.24;10372.000;    0.000;    0.000
1004.37;16060.000;    0.000;    0.000
1004.51; 9972.000;    0.000;    0.000
1004.64;15924.000;    0.000;    0.000
1004.77;10892.000;    0.000;    0.000
1004.91; 8356.000;    0.000;    0.000
1005.04; 8812.000;    0.000;    0.000
1005.17;13784.000;    0.000;    0.000
1005.30;12184.000;    0.000;    0.000
1005.44;18536.000;    0.000;    0.000
1005.57; 9300.000;    0.000;    0.000
1005.70;12064.000;    0.000;    0.000
1005.84;21300.000;    0.000;    0.000
1005.97;11624.000;    0.000;    0.000
1006.10;14124.000;    0.000;    0.000
1006.23;10704.000;    0.000;    0.000
1006.37;13152.000;    0.000;    0.000
1006.50;16544.000;    0.000;    0.000
1006.63;15900.000;    0.000;    0.000
1006.77;10616.000;    0.000;    0.000
1006.90;15164.000;    0.000;    0.000
1007.03;12984.000;    0.000;    0.000
1007.16;13040.000;    0.000;    0.000
1007.30;14572.000;    0.000;    0.000
1007.43;14128.000;    0.000;    0.000
1007.56;14048.000;    0.000;    0.000
1007.70;16808.000;    0.000;    0.000
1007.83; 7536.000;    0.000;    0.000
1007.96;12224.000;    0.000;    0.000
1008.09;17020.000;    0.000;    0.000
1008.23;12952.000;    0.000;    0.000
1008.36; 6732.000;    0.000;    0.000
1008.49;16336.000;    0.000;    0.000
1008.62;19500.000;    0.000;    0.000
1008.76;13220.000;    0.000;    0.000
1008.89;17668.000;    0.000;    0.000
1009.02;14708.000;    0.000;    0.000
1009.15;11860.000;    0.000;    0.000
1009.29;21060.000;    0.000;    0.000
1009.42; 9228.000;    0.000;    0.000
1009.55;15792.000;    0.000;    0.000
1009.68;15468.000;    0.000;    0.000
1009.82;11748.000;    0.000;    0.000
1009.95; 8940.000;    0.000;    0.000
1010.08; 7456.000;    0.000;    0.000
1010.21;11396.000;    0.000;    0.000
1010.35;17636.000;    0.000;    0.000
1010.48;13832.000;    0.000;    0.000
1010.61;17460.000;    0.000;    0.000
1010.74; 7208.000;    0.000;    0.000
1010.88;21560.000;    0.000;    0.000
1011.01;12108.000;    0.000;    0.000
1011.14; 7504.000;    0.000;    0.000
1011.27;17204.000;    0.000;    0.000
1011.41; 9652.000;    0.000;    0.000
1011.54; 9616.000;    0.000;    0.000
1011.67;12824.000;    0.000;    0.000
1011.80;16384.000;    0.000;    0.000
1011.94;13924.000;    0.000;    0.000
1012.07; 8708.000;    0.000;    0.000
1012.20;17844.000;    0.000;    0.000
1012.33;10652.000;    0.000;    0.000
1012.46;12772.000;    0.000;    0.000
1012.60;14804.000;    0.000;    0.000
1012.73;10556.000;    0.000;    0.000
1012.86;15352.000;    0.000;    0.000
1012.99;13024.000;    0.000;    0.000
1013.13;13460.000;    0.000;    0.000
1013.26;23224.000;    0.000;    0.000
1013.39; 9960.000;    0.000;    0.000
1013.52;14156.000;    0.000;    0.000
1013.65;14264.000;    0.000;    0.000
1013.79;13596.000;    0.000;    0.000
1013.92;13944.000;    0.000;    0.000
1014.05;13212.000;    0.000;    0.000
1014.18;20664.000;    0.000;    0.000
1014.31;17256.000;    0.000;    0.000
1014.45;11864.000;    0.000;    0.000
1014.58;16260.000;    0.000;    0.000
1014.71;15800.000;    0.000;    0.000
1014.84;14744.000;    0.000;    0.000
1014.98;19732.000;    0.000;    0.000
1015.11;14836.000;    0.000;    0.000
1015.24; 8840.000;    0.000;    0.000
1015.37; 9560.000;    0.000;    0.000
1015.50;13452.000;    0.000;    0.000
1015.64;12376.000;    0.000;    0.000
1015.77; 9924.000;    0.000;    0.000
1015.90;10524.000;    0.000;    0.000
1016.03;14260.000;    0.000;    0.000
1016.16;14456.000;    0.000;    0.000
1016.29;11196.000;    0.000;    0.000
1016.43;12156.000;    0.000;    0.000
1016.56;10888.000;    0.000;    0.000
1016.69;18572.000;    0.000;    0.000
1016.82;19088.000;    0.000;    0.000
1016.95;11704.000;    0.000;    0.000
1017.09;16768.000;    0.000;    0.000
1017.22;11504.000;    0.000;    0.000
1017.35;15488.000;    0.000;    0.000
1017.48;14680.000;    0.000;    0.000
1017.61;14892.000;    0.000;    0.000
1017.75;12528.000;    0.000;    0.000
1017.88;15620.000;    0.000;    0.000
1018.01;10732.000;    0.000;    0.000
1018.14;12596.000;    0.000;    0.000
1018.27;20092.000;    0.000;    0.000
1018.40;10136.000;    0.000;    0.000
1018.54; 8244.000;    0.000;    0.000
1018.67; 9400.000;    0.000;    0.000
1018.80;17300.000;    0.000;    0.000
1018.93;14440.000;    0.000;    0.000
1019.06; 6528.000;    0.000;    0.000
1019.19;11948.000;    0.000;    0.000
1019.33;11240.000;    0.000;    0.000
1019.46;12980.000;    0.000;    0.000
1019.59; 7372.000;    0.000;    0.000
1019.72;12588.000;    0.000;    0.000
1019.85;12436.000;    0.000;    0.000
1019.98;11664.000;    0.000;    0.000
1020.12;10116.000;    0.000;    0.000
1020.25;11720.000;    0.000;    0.000
1020.38;10628.000;    0.000;    0.000
1020.51;11696.000;    0.000;    0.000
1020.64;12356.000;    0.000;    0.000
1020.77;13904.000;    0.000;    0.000
1020.90;12248.000;    0.000;    0.000
1021.04; 7860.000;    0.000;    0.000
1021.17; 7212.000;    0.000;    0.000
1021.30;14728.000;    0.000;    0.000
1021.43;12348.000;    0.000;    0.000
1021.56;13776.000;    0.000;    0.000
1021.69;13496.000;    0.000;    0.000
1021.82;12156.000;    0.000;    0.000
1021.96;16828.000;    0.000;    0.000
1022.09;11000.000;    0.000;    0.000
1022.22; 9568.000;    0.000;    0.000
1022.35;18104.000;    0.000;    0.000
1022.48; 9864.000;    0.000;    0.000
1022.61; 9152.000;    0.000;    0.000
1022.74;13208.000;    0.000;    0.000
1022.87; 9916.000;    0.000;    0.000
1023.01; 8708.000;    0.000;    0.000
1023.14; 8680.000;    0.000;    0.000
1023.27;15672.000;    0.000;    0.000
1023.40;12404.000;    0.000;    0.000
1023.53;15760.000;    0.000;    0.000
1023.66;13176.000;    0.000;    0.000
1023.79;16232.000;    0.000;    0.000
1023.92;16240.000;    0.000;    0.000
1024.06;10648.000;    0.000;    0.000
1024.19; 7424.000;    0.000;    0.000
1024.32; 9452.000;    0.000;    0.000
1024.45; 7452.000;    0.000;    0.000
1024.58;12524.000;    0.000;    0.000
1024.71; 9408.000;    0.000;    0.000
1024.84;12568.000;    0.000;    0.000
1024.97;12504.000;    0.000;    0.000
1025.11;15540.000;    0.000;    0.000
1025.24;11372.000;    0.000;    0.000
1025.37;14964.000;    0.000;    0.000
1025.50;12216.000;    0.000;    0.000
1025.63; 8812.000;    0.000;    0.000
1025.76;12276.000;    0.000;    0.000
1025.89;10952.000;    0.000;    0.000
1026.02;13540.000;    0.000;    0.000
1026.15;10132.000;    0.000;    0.000
1026.28;14972.000;    0.000;    0.000
1026.42;14648.000;    0.000;    0.000
1026.55;15200.000;    0.000;    0.000
1026.68;14268.000;    0.000;    0.000
1026.81;14660.000;    0.000;    0.000
1026.94;12888.000;    0.000;    0.000
1027.07;17096.000;    0.000;    0.000
1027.20;17324.000;    0.000;    0.000
1027.33;15732.000;    0.000;    0.000
1027.46;12232.000;    0.000;    0.000
1027.59;21016.000;    0.000;    0.000
1027.72;15548.000;    0.000;    0.000
1027.86;17448.000;    0.000;    0.000
1027.99;11992.000;    0.000;    0.000
1028.12;13124.000;    0.000;    0.000
1028.25;14104.000;    0.000;    0.000
1028.38;16440.000;    0.000;    0.000
1028.51; 7940.000;    0.000;    0.000
1028.64; 7924.000;    0.000;    0.000
1028.77;10216.000;    0.000;    0.000
1028.90; 8244.000;    0.000;    0.000
1029.03; 9796.000;    0.000;    0.000
1029.16;10364.000;    0.000;    0.000
1029.29;13988.000;    0.000;    0.000
1029.42;12896.000;    0.000;    0.000
1029.56; 8028.000;    0.000;    0.000
1029.69;11168.000;    0.000;    0.000
1029.82;14420.000;    0.000;    0.000
1029.95; 8104.000;    0.000;    0.000
1030.08;12584.000;    0.000;    0.000
1030.21; 9520.000;    0.000;    0.000
1030.34;10096.000;    0.000;    0.000
1030.47;12088.000;    0.000;    0.000
1030.60;15004.000;    0.000;    0.000
1030.73;15432.000;    0.000;    0.000
1030.86;12516.000;    0.000;    0.000
1030.99; 9920.000;    0.000;    0.000
1031.12; 9896.000;    0.000;    0.000
1031.25;11984.000;    0.000;    0.000
1031.38; 7532.000;    0.000;    0.000
1031.51; 7796.000;    0.000;    0.000
1031.64;22360.000;    0.000;    0.000
1031.78;12876.000;    0.000;    0.000
1031.91;15652.000;    0.000;    0.000
1032.04;17796.000;    0.000;    0.000
1032.17;10860.000;    0.000;    0.000
1032.30;16396.000;    0.000;    0.000
1032.43;13072.000;    0.000;    0.000
1032.56;11004.000;    0.000;    0.000
1032.69;10708.000;    0.000;    0.000
1032.82;19296.000;    0.000;    0.000
1032.95;15720.000;    0.000;    0.000
1033.08;10684.000;    0.000;    0.000
1033.21;13016.000;    0.000;    0.000
1033.34; 9884.000;    0.000;    0.000
1033.47;10300.000;    0.000;    0.000
1033.60;10460.000;    0.000;    0.000
1033.73;15876.000;    0.000;    0.000
1033.86;13716.000;    0.000;    0.000
1033.99;17752.000;    0.000;    0.000
1034.12; 9060.000;    0.000;    0.000
1034.25;10472.000;    0.000;    0.000
1034.38;18912.000;    0.000;    0.000
1034.51;11328.000;    0.000;    0.000
1034.64;16444.000;    0.000;    0.000
1034.77;15256.000;    0.000;    0.000
1034.90;19228.000;    0.000;    0.000
1035.03;11068.000;    0.000;    0.000
1035.16;10784.000;    0.000;    0.000
1035.29;15736.000;    0.000;    0.000
1035.42;13576.000;    0.000;    0.000
1035.55;15320.000;    0.000;    0.000
1035.68;11176.000;    0.000;    0.000
1035.81;18092.000;    0.000;    0.000
1035.94; 9504.000;    0.000;    0.000
1036.07;13392.000;    0.000;    0.000
1036.20;14012.000;    0.000;    0.000
1036.33;12160.000;    0.000;    0.000
1036.46; 7744.000;    0.000;    0.000
1036.59;15620.000;    0.000;    0.000
1036.72;12152.000;    0.000;    0.000
1036.85;12380.000;    0.000;    0.000
1036.98; 8660.000;    0.000;    0.000
1037.11;13132.000;    0.000;    0.000
1037.24;10184.000;    0.000;    0.000
1037.37;14524.000;    0.000;    0.000
1037.50;10376.000;    0.000;    0.000
1037.63;14148.000;    0.000;    0.000
1037.76; 7248.000;    0.000;    0.000
1037.89;10496.000;    0.000;    0.000
1038.02;16748.000;    0.000;    0.000
1038.15;17948.000;    0.000;    0.000
1038.28; 9544.000;    0.000;    0.000
1038.41;11744.000;    0.000;    0.000
1038.54;13024.000;    0.000;    0.000
1038.67;13356.000;    0.000;    0.000
1038.80;14336.000;    0.000;    0.000
1038.93;14200.000;    0.000;    0.000
1039.06;14820.000;    0.000;    0.000
1039.19;13840.000;    0.000;    0.000
1039.32;10356.000;    0.000;    0.000
1039.45;14540.000;    0.000;    0.000
1039.58;10360.000;    0.000;    0.000
1039.71;17868.000;    0.000;    0.000
1039.84;11808.000;    0.000;    0.000
1039.97; 9152.000;    0.000;    0.000
1040.10;13628.000;    0.000;    0.000
1040.23;14284.000;    0.000;    0.000
1040.36;12092.000;    0.000;    0.000
1040.49;21992.000;    0.000;    0.000
1040.62;16024.000;    0.000;    0.000
1040.75;13072.000;    0.000;    0.000
1040.88;19288.000;    0.000;    0.000
1041.01;18304.000;    0.000;    0.000
1041.14;13732.000;    0.000;    0.000
1041.27; 9724.000;    0.000;    0.000
1041.40; 8868.000;    0.000;    0.000
1041.53;18860.000;    0.000;    0.000
1041.65;14060.000;    0.000;    0.000
1041.78;13584.000;    0.000;    0.000
1041.91;11304.000;    0.000;    0.000
1042.04;13228.000;    0.000;    0.000
1042.17;14848.000;    0.000;    0.000
1042.30;12624.000;    0.000;    0.000
1042.43; 6288.000;    0.000;    0.000
1042.56;15764.000;    0.000;    0.000
1042.69;15696.000;    0.000;    0.000
1042.82;12652.000;    0.000;    0.000
1042.95;17760.000;    0.000;    0.000
1043.08;21492.000;    0.000;    0.000
1043.21;16016.000;    0.000;    0.000
1043.34;15500.000;    0.000;    0.000
1043.47;18896.000;    0.000;    0.000
1043.60; 9852.000;    0.000;    0.000
1043.73;13096.000;    0.000;    0.000
1043.86;20804.000;    0.000;    0.000
1043.98;18204.000;    0.000;    0.000
1044.11;10472.000;    0.000;    0.000
1044.24; 9836.000;    0.000;    0.000
1044.37;15016.000;    0.000;    0.000
1044.50;17104.000;    0.000;    0.000
1044.63;13756.000;    0.000;    0.000
1044.76;13652.000;    0.000;    0.000
1044.89;17192.000;    0.000;    0.000
1045.02;12616.000;    0.000;    0.000
1045.15; 9676.000;    0.000;    0.000
1045.28;20688.000;    0.000;    0.000
1045.41;15152.000;    0.000;    0.000
1045.54;13560.000;    0.000;    0.000
1045.66;12768.000;    0.000;    0.000
1045.79;15976.000;    0.000;    0.000
1045.92;14456.000;    0.000;    0.000
1046.05;20016.000;    0.000;    0.000
1046.18;12972.000;    0.000;    0.000
1046.31;14140.000;    0.000;    0.000
1046.44;20528.000;    0.000;    0.000
1046.57;10780.000;    0.000;    0.000
1046.70; 7520.000;    0.000;    0.000
1046.83;15044.000;    0.000;    0.000
1046.96;10816.000;    0.000;    0.000
1047.08;14412.000;    0.000;    0.000
1047.21;10976.000;    0.000;    0.000
1047.34;11984.000;    0.000;    0.000
1047.47;12640.000;    0.000;    0.000
1047.60;15492.000;    0.000;    0.000
1047.73;11708.000;    0.000;    0.000
1047.86;12184.000;    0.000;    0.000
1047.99;14384.000;    0.000;    0.000
1048.12;10152.000;    0.000;    0.000
1048.24;11344.000;    0.000;    0.000
1048.37;12932.000;    0.000;    0.000
1048.50;23512.000;    0.000;    0.000
1048.63; 9828.000;    0.000;    0.000
1048.76;13712.000;    0.000;    0.000
1048.89;13388.000;    0.000;    0.000
1049.02;17452.000;    0.000;    0.000
1049.15;10964.000;    0.000;    0.000
1049.28;15988.000;    0.000;    0.000
1049.40;18376.000;    0.000;    0.000
1049.53;16196.000;    0.000;    0.000
1049.66;11312.000;    0.000;    0.000
1049.79;17292.000;    0.000;    0.000
1049.92;11212.000;    0.000;    0.000
1050.05;11820.000;    0.000;    0.000
1050.18;13756.000;    0.000;    0.000
1050.31;17480.000;    0.000;    0.000
1050.43;10092.000;    0.000;    0.000
1050.56;10948.000;    0.000;    0.000
1050.69;17544.000;    0.000;    0.000
1050.82;17896.000;    0.000;    0.000
1050.95;15320.000;    0.000;    0.000
1051.08;10584.000;    0.000;    0.000
1051.21;11700.000;    0.000;    0.000
1051.33;10104.000;    0.000;    0.000
1051.46;13532.000;    0.000;    0.000
1051.59;15528.000;    0.000;    0.000
1051.72;13248.000;    0.000;    0.000
1051.85;10712.000;    0.000;    0.000
1051.98;12908.000;    0.000;    0.000
1052.11;14900.000;    0.000;    0.000
1052.23;10016.000;    0.000;    0.000
1052.36;14100.000;    0.000;    0.000
1052.49;11668.000;    0.000;    0.000
1052.62;13128.000;    0.000;    0.000
1052.75;11144.000;    0.000;    0.000
1052.88;13672.000;    0.000;    0.000
1053.01; 9016.000;    0.000;    0.000
1053.13;21512.000;    0.000;    0.000
1053.26;14432.000;    0.000;    0.000
1053.39;11708.000;    0.000;    0.000
1053.52;16156.000;    0.000;    0.000
1053.65;14892.000;    0.000;    0.000
1053.78; 9076.000;    0.000;    0.000
1053.90; 9716.000;    0.000;    0.000
1054.03;15692.000;    0.000;    0.000
1054.16;12612.000;    0.000;    0.000
1054.29;11696.000;    0.000;    0.000
1054.42;12240.000;    0.000;    0.000
1054.55;16904.000;    0.000;    0.000
1054.67;14712.000;    0.000;    0.000
1054.80;13188.000;    0.000;    0.000
1054.93;10224.000;    0.000;    0.000
1055.06;15512.000;    0.000;    0.000
1055.19;17448.000;    0.000;    0.000
1055.31;15512.000;    0.000;    0.000
1055.44; 7316.000;    0.000;    0.000
1055.57;14928.000;    0.000;    0.000
1055.70;12980.000;    0.000;    0.000
1055.83; 9892.000;    0.000;    0.000
1055.96; 7068.000;    0.000;    0.000
1056.08;15580.000;    0.000;    0.000
1056.21;10920.000;    0.000;    0.000
1056.34;17220.000;    0.000;    0.000
1056.47;10500.000;    0.000;    0.000
1056.60;13892.000;    0.000;    0.000
1056.72;18276.000;    0.000;    0.000
1056.85;11160.000;    0.000;    0.000
1056.98;11188.000;    0.000;    0.000
1057.11;13560.000;    0.000;    0.000
1057.24;13632.000;    0.000;    0.000
1057.36;10712.000;    0.000;    0.000
1057.49; 8868.000;    0.000;    0.000
1057.62;14144.000;    0.000;    0.000
1057.75;15332.000;    0.000;    0.000
1057.88;15668.000;    0.000;    0.000
1058.00;16812.000;    0.000;    0.000
1058.13;14260.000;    0.000;    0.000
1058.26;14968.000;    0.000;    0.000
1058.39;15204.000;    0.000;    0.000
1058.52;12172.000;    0.000;    0.000
1058.64;14820.000;    0.000;    0.000
1058.77;18324.000;    0.000;    0.000
1058.90;15528.000;    0.000;    0.000
1059.03;12332.000;    0.000;    0.000
1059.16;16324.000;    0.000;    0.000
1059.28;21144.000;    0.000;    0.000
1059.41;13896.000;    0.000;    0.000
1059.54;17152.000;    0.000;    0.000
1059.67;12392.000;    0.000;    0.000
1059.79;11560.000;    0.000;    0.000
1059.92; 7672.000;    0.000;    0.000
1060.05;10844.000;    0.000;    0.000
1060.18;12524.000;    0.000;    0.000
1060.31;12376.000;    0.000;    0.000
1060.43;10244.000;    0.000;    0.000
1060.56;14320.000;    0.000;    0.000
1060.69;17240.000;    0.000;    0.000
1060.82; 8040.000;    0.000;    0.000
1060.94; 9248.000;    0.000;    0.000
1061.07;12272.000;    0.000;    0.000
1061.20;13868.000;    0.000;    0.000
1061.33;11632.000;    0.000;    0.000
1061.45;11300.000;    0.000;    0.000
1061.58;13908.000;    0.000;    0.000
1061.71;12408.000;    0.000;    0.000
1061.84;20088.000;    0.000;    0.000
1061.96;12452.000;    0.000;    0.000
1062.09;15620.000;    0.000;    0.000
1062.22;11024.000;    0.000;    0.000
1062.35;10816.000;    0.000;    0.000
1062.47; 9632.000;    0.000;    0.000
1062.60;13228.000;    0.000;    0.000
1062.73; 9276.000;    0.000;    0.000
1062.86;10860.000;    0.000;    0.000
1062.98;10228.000;    0.000;    0.000
1063.11; 9912.000;    0.000;    0.000
1063.24;13992.000;    0.000;    0.000
1063.37;17384.000;    0.000;    0.000
1063.49;16976.000;    0.000;    0.000
1063.62; 9592.000;    0.000;    0.000
1063.75;18280.000;    0.000;    0.000
1063.88;12960.000;    0.000;    0.000
1064.00;12952.000;    0.000;    0.000
1064.13;11428.000;    0.000;    0.000
1064.26;16472.000;    0.000;    0.000
1064.39;14980.000;    0.000;    0.000
1064.51;11784.000;    0.000;    0.000
1064.64;16376.000;    0.000;    0.000
1064.77;15576.000;    0.000;    0.000
1064.89;14656.000;    0.000;    0.000
1065.02;12212.000;    0.000;    0.000
1065.15;10632.000;    0.000;    0.000
1065.28;10484.000;    0.000;    0.000
1065.40;11444.000;    0.000;    0.000
1065.53;12216.000;    0.000;    0.000
1065.66;11484.000;    0.000;    0.000
1065.78;12108.000;    0.000;    0.000
1065.91;15672.000;    0.000;    0.000
1066.04;15252.000;    0.000;    0.000
1066.17;18380.000;    0.000;    0.000
1066.29;17232.000;    0.000;    0.000
1066.42;12744.000;    0.000;    0.000
1066.55; 9300.000;    0.000;    0.000
1066.67;14096.000;    0.000;    0.000
1066.80;12512.000;    0.000;    0.000
1066.93;17024.000;    0.000;    0.000
1067.06;11288.000;    0.000;    0.000
1067.18;15236.000;    0.000;    0.000
1067.31;10148.000;    0.000;    0.000
1067.44;13964.000;    0.000;    0.000
1067.56; 8332.000;    0.000;    0.000
1067.69;11480.000;    0.000;    0.000
1067.82;14268.000;    0.000;    0.000
1067.94;14320.000;    0.000;    0.000
1068.07;11756.000;    0.000;    0.000
1068.20;12716.000;    0.000;    0.000
1068.33;14176.000;    0.000;    0.000
1068.45;12884.000;    0.000;    0.000
1068.58;11072.000;    0.000;    0.000
1068.71; 9648.000;    0.000;    0.000
1068.83;13856.000;    0.000;    0.000
1068.96;18200.000;    0.000;    0.000
1069.09;18420.000;    0.000;    0.000
1069.21;16008.000;    0.000;    0.000
1069.34; 9592.000;    0.000;    0.000
1069.47; 9172.000;    0.000;    0.000
1069.59;13740.000;    0.000;    0.000
1069.72;10132.000;    0.000;    0.000
1069.85;18268.000;    0.000;    0.000
1069.97;11468.000;    0.000;    0.000
1070.10;12404.000;    0.000;    0.000
1070.23;15420.000;    0.000;    0.000
1070.35;16024.000;    0.000;    0.000
1070.48;10284.000;    0.000;    0.000
1070.61;13208.000;    0.000;    0.000
1070.73; 9476.000;    0.000;    0.000
1070.86;18084.000;    0.000;    0.000
1070.99;15396.000;    0.000;    0.000
1071.11;13680.000;    0.000;    0.000
1071.24;17180.000;    0.000;    0.000
1071.37;12688.000;    0.000;    0.000
1071.49;19300.000;    0.000;    0.000
1071.62;11740.000;    0.000;    0.000
1071.75;15088.000;    0.000;    0.000
1071.87;16300.000;    0.000;    0.000
1072.00;16308.000;    0.000;    0.000
1072.13;10804.000;    0.000;    0.000
1072.25;11384.000;    0.000;    0.000
1072.38;10840.000;    0.000;    0.000
1072.51;16132.000;    0.000;    0.000
1072.63;11128.000;    0.000;    0.000
1072.76;10036.000;    0.000;    0.000
1072.89; 9380.000;    0.000;    0.000
1073.01;14684.000;    0.000;    0.000
1073.14;13488.000;    0.000;    0.000
1073.27;13712.000;    0.000;    0.000
1073.39;23688.000;    0.000;    0.000
1073.52;12396.000;    0.000;    0.000
1073.64;18480.000;    0.000;    0.000
1073.77; 9040.000;    0.000;    0.000
1073.90;12004.000;    0.000;    0.000
1074.02;14212.000;    0.000;    0.000
1074.15;11888.000;    0.000;    0.000
1074.28;12912.000;    0.000;    0.000
1074.40;19700.000;    0.000;    0.000
1074.53;23904.000;    0.000;    0.000
1074.66;12416.000;    0.000;    0.000
1074.78;18048.000;    0.000;    0.000
1074.91;13956.000;    0.000;    0.000
1075.03;18336.000;    0.000;    0.000
1075.16;13960.000;    0.000;    0.000
1075.29;13408.000;    0.000;    0.000
1075.41;11468.000;    0.000;    0.000
1075.54;13800.000;    0.000;    0.000
1075.67; 8928.000;    0.000;    0.000
1075.79;13196.000;    0.000;    0.000
1075.92;13716.000;    0.000;    0.000
1076.04;16704.000;    0.000;    0.000

