X590
Integration time [ms]: 40000.000
Averaging Nr. [scans]: 1
Smoothing Nr. [pixels]: 0
Data measured with spectrometer [name]: 0604028U1
Wave   ;Sample   ;Dark     ;Reference;Scope
[nm]   ;[counts] ;[counts] ;[counts] 

 542.89;12728.000;    0.000;    0.000
 543.05;15488.000;    0.000;    0.000
 543.21;21504.000;    0.000;    0.000
 543.37;19596.000;    0.000;    0.000
 543.54;15936.000;    0.000;    0.000
 543.70;15364.000;    0.000;    0.000
 543.86;13552.000;    0.000;    0.000
 544.03;18516.000;    0.000;    0.000
 544.19;17440.000;    0.000;    0.000
 544.35;17948.000;    0.000;    0.000
 544.51;19288.000;    0.000;    0.000
 544.68;22064.000;    0.000;    0.000
 544.84;13432.000;    0.000;    0.000
 545.00;16564.000;    0.000;    0.000
 545.17;22612.000;    0.000;    0.000
 545.33;16220.000;    0.000;    0.000
 545.49;10144.000;    0.000;    0.000
 545.65;17068.000;    0.000;    0.000
 545.82;15720.000;    0.000;    0.000
 545.98;20012.000;    0.000;    0.000
 546.14;14376.000;    0.000;    0.000
 546.31;13132.000;    0.000;    0.000
 546.47;21784.000;    0.000;    0.000
 546.63;17116.000;    0.000;    0.000
 546.79;16044.000;    0.000;    0.000
 546.96;15284.000;    0.000;    0.000
 547.12;16300.000;    0.000;    0.000
 547.28;18684.000;    0.000;    0.000
 547.44; 9316.000;    0.000;    0.000
 547.61;12096.000;    0.000;    0.000
 547.77;12344.000;    0.000;    0.000
 547.93;20864.000;    0.000;    0.000
 548.10;16432.000;    0.000;    0.000
 548.26;14836.000;    0.000;    0.000
 548.42;17812.000;    0.000;    0.000
 548.58;22472.000;    0.000;    0.000
 548.75;20040.000;    0.000;    0.000
 548.91;12944.000;    0.000;    0.000
 549.07;15336.000;    0.000;    0.000
 549.23;23696.000;    0.000;    0.000
 549.40;19360.000;    0.000;    0.000
 549.56;17564.000;    0.000;    0.000
 549.72;13680.000;    0.000;    0.000
 549.88;19292.000;    0.000;    0.000
 550.05;16120.000;    0.000;    0.000
 550.21;14116.000;    0.000;    0.000
 550.37;14648.000;    0.000;    0.000
 550.53;12932.000;    0.000;    0.000
 550.70;12588.000;    0.000;    0.000
 550.86;18112.000;    0.000;    0.000
 551.02;19344.000;    0.000;    0.000
 551.19;18688.000;    0.000;    0.000
 551.35;12728.000;    0.000;    0.000
 551.51;14136.000;    0.000;    0.000
 551.67;11800.000;    0.000;    0.000
 551.84;15360.000;    0.000;    0.000
 552.00;21264.000;    0.000;    0.000
 552.16;18532.000;    0.000;    0.000
 552.32;11324.000;    0.000;    0.000
 552.49;18680.000;    0.000;    0.000
 552.65;12920.000;    0.000;    0.000
 552.81;17324.000;    0.000;    0.000
 552.97;11592.000;    0.000;    0.000
 553.14;16784.000;    0.000;    0.000
 553.30;14328.000;    0.000;    0.000
 553.46;13592.000;    0.000;    0.000
 553.62;18040.000;    0.000;    0.000
 553.79;18152.000;    0.000;    0.000
 553.95;19204.000;    0.000;    0.000
 554.11;20300.000;    0.000;    0.000
 554.27;21432.000;    0.000;    0.000
 554.43;19952.000;    0.000;    0.000
 554.60;15664.000;    0.000;    0.000
 554.76;20288.000;    0.000;    0.000
 554.92;12540.000;    0.000;    0.000
 555.08;20580.000;    0.000;    0.000
 555.25;16080.000;    0.000;    0.000
 555.41;16360.000;    0.000;    0.000
 555.57;14164.000;    0.000;    0.000
 555.73;18368.000;    0.000;    0.000
 555.90;13160.000;    0.000;    0.000
 556.06; 7940.000;    0.000;    0.000
 556.22;15912.000;    0.000;    0.000
 556.38;18064.000;    0.000;    0.000
 556.55;13200.000;    0.000;    0.000
 556.71;17612.000;    0.000;    0.000
 556.87;16288.000;    0.000;    0.000
 557.03;15116.000;    0.000;    0.000
 557.19; 8880.000;    0.000;    0.000
 557.36;15100.000;    0.000;    0.000
 557.52;17464.000;    0.000;    0.000
 557.68;19480.000;    0.000;    0.000
 557.84;11684.000;    0.000;    0.000
 558.01;12740.000;    0.000;    0.000
 558.17;14144.000;    0.000;    0.000
 558.33;18084.000;    0.000;    0.000
 558.49;20068.000;    0.000;    0.000
 558.65;14864.000;    0.000;    0.000
 558.82;18856.000;    0.000;    0.000
 558.98;16576.000;    0.000;    0.000
 559.14;20724.000;    0.000;    0.000
 559.30;12116.000;    0.000;    0.000
 559.47;18048.000;    0.000;    0.000
 559.63;17068.000;    0.000;    0.000
 559.79;18020.000;    0.000;    0.000
 559.95;18732.000;    0.000;    0.000
 560.11;18076.000;    0.000;    0.000
 560.28;23184.000;    0.000;    0.000
 560.44;14620.000;    0.000;    0.000
 560.60;20132.000;    0.000;    0.000
 560.76;17064.000;    0.000;    0.000
 560.93;16064.000;    0.000;    0.000
 561.09;12108.000;    0.000;    0.000
 561.25; 9352.000;    0.000;    0.000
 561.41;13460.000;    0.000;    0.000
 561.57;23104.000;    0.000;    0.000
 561.74;12564.000;    0.000;    0.000
 561.90;17360.000;    0.000;    0.000
 562.06;19612.000;    0.000;    0.000
 562.22;13268.000;    0.000;    0.000
 562.38;14060.000;    0.000;    0.000
 562.55;10788.000;    0.000;    0.000
 562.71;17064.000;    0.000;    0.000
 562.87;13644.000;    0.000;    0.000
 563.03;10756.000;    0.000;    0.000
 563.19;14032.000;    0.000;    0.000
 563.36;17356.000;    0.000;    0.000
 563.52;15460.000;    0.000;    0.000
 563.68;18880.000;    0.000;    0.000
 563.84;10980.000;    0.000;    0.000
 564.00;23200.000;    0.000;    0.000
 564.17;15944.000;    0.000;    0.000
 564.33;13820.000;    0.000;    0.000
 564.49;14596.000;    0.000;    0.000
 564.65;11964.000;    0.000;    0.000
 564.81;14636.000;    0.000;    0.000
 564.98;14796.000;    0.000;    0.000
 565.14;10840.000;    0.000;    0.000
 565.30;15788.000;    0.000;    0.000
 565.46;17624.000;    0.000;    0.000
 565.62;14624.000;    0.000;    0.000
 565.79;13612.000;    0.000;    0.000
 565.95;17156.000;    0.000;    0.000
 566.11;21220.000;    0.000;    0.000
 566.27;17752.000;    0.000;    0.000
 566.43;19320.000;    0.000;    0.000
 566.59;12560.000;    0.000;    0.000
 566.76;19972.000;    0.000;    0.000
 566.92;12072.000;    0.000;    0.000
 567.08;12400.000;    0.000;    0.000
 567.24;19268.000;    0.000;    0.000
 567.40;16580.000;    0.000;    0.000
 567.57;14128.000;    0.000;    0.000
 567.73;31320.000;    0.000;    0.000
 567.89;16284.000;    0.000;    0.000
 568.05;12236.000;    0.000;    0.000
 568.21;19424.000;    0.000;    0.000
 568.37; 9484.000;    0.000;    0.000
 568.54;12240.000;    0.000;    0.000
 568.70;14172.000;    0.000;    0.000
 568.86;16468.000;    0.000;    0.000
 569.02;12960.000;    0.000;    0.000
 569.18;16508.000;    0.000;    0.000
 569.34;10388.000;    0.000;    0.000
 569.51;14988.000;    0.000;    0.000
 569.67;20436.000;    0.000;    0.000
 569.83;13756.000;    0.000;    0.000
 569.99;17696.000;    0.000;    0.000
 570.15;15556.000;    0.000;    0.000
 570.31;13024.000;    0.000;    0.000
 570.48; 9952.000;    0.000;    0.000
 570.64;15604.000;    0.000;    0.000
 570.80;11388.000;    0.000;    0.000
 570.96;12388.000;    0.000;    0.000
 571.12;17336.000;    0.000;    0.000
 571.28;25404.000;    0.000;    0.000
 571.45; 8856.000;    0.000;    0.000
 571.61;15488.000;    0.000;    0.000
 571.77;14772.000;    0.000;    0.000
 571.93;22888.000;    0.000;    0.000
 572.09;11092.000;    0.000;    0.000
 572.25; 9896.000;    0.000;    0.000
 572.42;18580.000;    0.000;    0.000
 572.58;10280.000;    0.000;    0.000
 572.74;10124.000;    0.000;    0.000
 572.90;19228.000;    0.000;    0.000
 573.06;11784.000;    0.000;    0.000
 573.22;13080.000;    0.000;    0.000
 573.39;16340.000;    0.000;    0.000
 573.55;12012.000;    0.000;    0.000
 573.71;14788.000;    0.000;    0.000
 573.87;18580.000;    0.000;    0.000
 574.03; 9988.000;    0.000;    0.000
 574.19;13024.000;    0.000;    0.000
 574.35;11612.000;    0.000;    0.000
 574.52;11040.000;    0.000;    0.000
 574.68;18392.000;    0.000;    0.000
 574.84;18568.000;    0.000;    0.000
 575.00;13556.000;    0.000;    0.000
 575.16;13240.000;    0.000;    0.000
 575.32; 8416.000;    0.000;    0.000
 575.48;10648.000;    0.000;    0.000
 575.65;12940.000;    0.000;    0.000
 575.81;13928.000;    0.000;    0.000
 575.97;10480.000;    0.000;    0.000
 576.13;23412.000;    0.000;    0.000
 576.29;11096.000;    0.000;    0.000
 576.45;28224.000;    0.000;    0.000
 576.61;12120.000;    0.000;    0.000
 576.78;17896.000;    0.000;    0.000
 576.94;15976.000;    0.000;    0.000
 577.10;13700.000;    0.000;    0.000
 577.26;16096.000;    0.000;    0.000
 577.42;20860.000;    0.000;    0.000
 577.58;13456.000;    0.000;    0.000
 577.74;14584.000;    0.000;    0.000
 577.90;13204.000;    0.000;    0.000
 578.07;15836.000;    0.000;    0.000
 578.23;16888.000;    0.000;    0.000
 578.39;12696.000;    0.000;    0.000
 578.55;13040.000;    0.000;    0.000
 578.71;15328.000;    0.000;    0.000
 578.87;15772.000;    0.000;    0.000
 579.03;13832.000;    0.000;    0.000
 579.20;12144.000;    0.000;    0.000
 579.36;17128.000;    0.000;    0.000
 579.52;11240.000;    0.000;    0.000
 579.68;18028.000;    0.000;    0.000
 579.84;10276.000;    0.000;    0.000
 580.00;12352.000;    0.000;    0.000
 580.16;11012.000;    0.000;    0.000
 580.32;17960.000;    0.000;    0.000
 580.48; 7192.000;    0.000;    0.000
 580.65;22588.000;    0.000;    0.000
 580.81;10652.000;    0.000;    0.000
 580.97;13728.000;    0.000;    0.000
 581.13;15120.000;    0.000;    0.000
 581.29;10192.000;    0.000;    0.000
 581.45;10140.000;    0.000;    0.000
 581.61;13964.000;    0.000;    0.000
 581.77;12732.000;    0.000;    0.000
 581.94;12176.000;    0.000;    0.000
 582.10;20836.000;    0.000;    0.000
 582.26;22064.000;    0.000;    0.000
 582.42; 9920.000;    0.000;    0.000
 582.58;12608.000;    0.000;    0.000
 582.74;13748.000;    0.000;    0.000
 582.90;13236.000;    0.000;    0.000
 583.06;13120.000;    0.000;    0.000
 583.22;14476.000;    0.000;    0.000
 583.38;18016.000;    0.000;    0.000
 583.55;13496.000;    0.000;    0.000
 583.71;14612.000;    0.000;    0.000
 583.87;19500.000;    0.000;    0.000
 584.03;16260.000;    0.000;    0.000
 584.19;15844.000;    0.000;    0.000
 584.35; 8876.000;    0.000;    0.000
 584.51;16648.000;    0.000;    0.000
 584.67;15124.000;    0.000;    0.000
 584.83;13904.000;    0.000;    0.000
 584.99;12560.000;    0.000;    0.000
 585.16;15660.000;    0.000;    0.000
 585.32;23032.000;    0.000;    0.000
 585.48;15136.000;    0.000;    0.000
 585.64;15756.000;    0.000;    0.000
 585.80;12572.000;    0.000;    0.000
 585.96;19676.000;    0.000;    0.000
 586.12;15008.000;    0.000;    0.000
 586.28;21376.000;    0.000;    0.000
 586.44;11012.000;    0.000;    0.000
 586.60;20528.000;    0.000;    0.000
 586.77;12200.000;    0.000;    0.000
 586.93;18500.000;    0.000;    0.000
 587.09;13744.000;    0.000;    0.000
 587.25;17072.000;    0.000;    0.000
 587.41;15356.000;    0.000;    0.000
 587.57;21300.000;    0.000;    0.000
 587.73;15124.000;    0.000;    0.000
 587.89;19424.000;    0.000;    0.000
 588.05;24740.000;    0.000;    0.000
 588.21;12616.000;    0.000;    0.000
 588.37;19380.000;    0.000;    0.000
 588.53;21604.000;    0.000;    0.000
 588.70;18848.000;    0.000;    0.000
 588.86;19080.000;    0.000;    0.000
 589.02;17632.000;    0.000;    0.000
 589.18;16360.000;    0.000;    0.000
 589.34;22380.000;    0.000;    0.000
 589.50;15044.000;    0.000;    0.000
 589.66;22976.000;    0.000;    0.000
 589.82;20920.000;    0.000;    0.000
 589.98;20664.000;    0.000;    0.000
 590.14;16836.000;    0.000;    0.000
 590.30;13116.000;    0.000;    0.000
 590.46;19312.000;    0.000;    0.000
 590.62;22120.000;    0.000;    0.000
 590.78;14124.000;    0.000;    0.000
 590.95;20804.000;    0.000;    0.000
 591.11;21668.000;    0.000;    0.000
 591.27;18220.000;    0.000;    0.000
 591.43;18988.000;    0.000;    0.000
 591.59;24136.000;    0.000;    0.000
 591.75;23920.000;    0.000;    0.000
 591.91;20364.000;    0.000;    0.000
 592.07;23500.000;    0.000;    0.000
 592.23;22772.000;    0.000;    0.000
 592.39;22792.000;    0.000;    0.000
 592.55;19120.000;    0.000;    0.000
 592.71;18604.000;    0.000;    0.000
 592.87;18152.000;    0.000;    0.000
 593.03;18104.000;    0.000;    0.000
 593.19;18224.000;    0.000;    0.000
 593.35;18712.000;    0.000;    0.000
 593.52;21480.000;    0.000;    0.000
 593.68;16864.000;    0.000;    0.000
 593.84;18196.000;    0.000;    0.000
 594.00;18660.000;    0.000;    0.000
 594.16;21592.000;    0.000;    0.000
 594.32;16800.000;    0.000;    0.000
 594.48;20336.000;    0.000;    0.000
 594.64;17692.000;    0.000;    0.000
 594.80;16432.000;    0.000;    0.000
 594.96;13944.000;    0.000;    0.000
 595.12;18616.000;    0.000;    0.000
 595.28;13200.000;    0.000;    0.000
 595.44;17052.000;    0.000;    0.000
 595.60;11032.000;    0.000;    0.000
 595.76;10924.000;    0.000;    0.000
 595.92;15608.000;    0.000;    0.000
 596.08;10412.000;    0.000;    0.000
 596.24;13360.000;    0.000;    0.000
 596.40;18440.000;    0.000;    0.000
 596.56;13172.000;    0.000;    0.000
 596.73;13000.000;    0.000;    0.000
 596.89;19316.000;    0.000;    0.000
 597.05;16340.000;    0.000;    0.000
 597.21;13724.000;    0.000;    0.000
 597.37;15960.000;    0.000;    0.000
 597.53;14388.000;    0.000;    0.000
 597.69;13104.000;    0.000;    0.000
 597.85;15220.000;    0.000;    0.000
 598.01;12660.000;    0.000;    0.000
 598.17;13688.000;    0.000;    0.000
 598.33;13672.000;    0.000;    0.000
 598.49;15872.000;    0.000;    0.000
 598.65;10788.000;    0.000;    0.000
 598.81;12308.000;    0.000;    0.000
 598.97;10840.000;    0.000;    0.000
 599.13;13600.000;    0.000;    0.000
 599.29;15372.000;    0.000;    0.000
 599.45;10876.000;    0.000;    0.000
 599.61;16020.000;    0.000;    0.000
 599.77;12304.000;    0.000;    0.000
 599.93;13808.000;    0.000;    0.000
 600.09;14812.000;    0.000;    0.000
 600.25;14948.000;    0.000;    0.000
 600.41; 7100.000;    0.000;    0.000
 600.57;12588.000;    0.000;    0.000
 600.73;11268.000;    0.000;    0.000
 600.89;18192.000;    0.000;    0.000
 601.05;12712.000;    0.000;    0.000
 601.21;11884.000;    0.000;    0.000
 601.37;11968.000;    0.000;    0.000
 601.53;13280.000;    0.000;    0.000
 601.69;15940.000;    0.000;    0.000
 601.85;10192.000;    0.000;    0.000
 602.01;14464.000;    0.000;    0.000
 602.17;14160.000;    0.000;    0.000
 602.33;11600.000;    0.000;    0.000
 602.49;11312.000;    0.000;    0.000
 602.65;15192.000;    0.000;    0.000
 602.81;19084.000;    0.000;    0.000
 602.97; 9724.000;    0.000;    0.000
 603.13;11328.000;    0.000;    0.000
 603.29;15392.000;    0.000;    0.000
 603.45;17508.000;    0.000;    0.000
 603.61;17200.000;    0.000;    0.000
 603.78;15660.000;    0.000;    0.000
 603.94;17940.000;    0.000;    0.000
 604.10;15304.000;    0.000;    0.000
 604.26;18568.000;    0.000;    0.000
 604.42;20296.000;    0.000;    0.000
 604.58;10420.000;    0.000;    0.000
 604.74;14148.000;    0.000;    0.000
 604.90; 7088.000;    0.000;    0.000
 605.06; 9076.000;    0.000;    0.000
 605.22;15156.000;    0.000;    0.000
 605.38; 8584.000;    0.000;    0.000
 605.54;10740.000;    0.000;    0.000
 605.70;10028.000;    0.000;    0.000
 605.86;12004.000;    0.000;    0.000
 606.01;13384.000;    0.000;    0.000
 606.17;12460.000;    0.000;    0.000
 606.33;11724.000;    0.000;    0.000
 606.49;14852.000;    0.000;    0.000
 606.65;14724.000;    0.000;    0.000
 606.81; 8924.000;    0.000;    0.000
 606.97;12484.000;    0.000;    0.000
 607.13; 9616.000;    0.000;    0.000
 607.29;13072.000;    0.000;    0.000
 607.45;15140.000;    0.000;    0.000
 607.61;14880.000;    0.000;    0.000
 607.77;15760.000;    0.000;    0.000
 607.93;17896.000;    0.000;    0.000
 608.09;13040.000;    0.000;    0.000
 608.25;12100.000;    0.000;    0.000
 608.41;15284.000;    0.000;    0.000
 608.57;16656.000;    0.000;    0.000
 608.73;14628.000;    0.000;    0.000
 608.89;14316.000;    0.000;    0.000
 609.05;10140.000;    0.000;    0.000
 609.21;17852.000;    0.000;    0.000
 609.37;13768.000;    0.000;    0.000
 609.53;10504.000;    0.000;    0.000
 609.69;14168.000;    0.000;    0.000
 609.85;16160.000;    0.000;    0.000
 610.01;10732.000;    0.000;    0.000
 610.17;13116.000;    0.000;    0.000
 610.33; 8676.000;    0.000;    0.000
 610.49;13896.000;    0.000;    0.000
 610.65;12820.000;    0.000;    0.000
 610.81; 9568.000;    0.000;    0.000
 610.97;13084.000;    0.000;    0.000
 611.13;12980.000;    0.000;    0.000
 611.29;15952.000;    0.000;    0.000
 611.45;25716.000;    0.000;    0.000
 611.61;23464.000;    0.000;    0.000
 611.77;16204.000;    0.000;    0.000
 611.93; 9944.000;    0.000;    0.000
 612.09; 9948.000;    0.000;    0.000
 612.25; 9656.000;    0.000;    0.000
 612.41;18588.000;    0.000;    0.000
 612.57;15056.000;    0.000;    0.000
 612.73;13000.000;    0.000;    0.000
 612.89;14440.000;    0.000;    0.000
 613.04; 9188.000;    0.000;    0.000
 613.20;16732.000;    0.000;    0.000
 613.36;10288.000;    0.000;    0.000
 613.52;13632.000;    0.000;    0.000
 613.68;11100.000;    0.000;    0.000
 613.84;12048.000;    0.000;    0.000
 614.00;15756.000;    0.000;    0.000
 614.16;15272.000;    0.000;    0.000
 614.32;13996.000;    0.000;    0.000
 614.48;20736.000;    0.000;    0.000
 614.64;19212.000;    0.000;    0.000
 614.80;13720.000;    0.000;    0.000
 614.96;15100.000;    0.000;    0.000
 615.12; 9488.000;    0.000;    0.000
 615.28;16624.000;    0.000;    0.000
 615.44;14076.000;    0.000;    0.000
 615.60;22708.000;    0.000;    0.000
 615.76;16640.000;    0.000;    0.000
 615.92;13492.000;    0.000;    0.000
 616.08;16828.000;    0.000;    0.000
 616.23;15692.000;    0.000;    0.000
 616.39;15900.000;    0.000;    0.000
 616.55;14756.000;    0.000;    0.000
 616.71;16956.000;    0.000;    0.000
 616.87;18388.000;    0.000;    0.000
 617.03;12020.000;    0.000;    0.000
 617.19; 8776.000;    0.000;    0.000
 617.35;19540.000;    0.000;    0.000
 617.51;19812.000;    0.000;    0.000
 617.67;12632.000;    0.000;    0.000
 617.83;11640.000;    0.000;    0.000
 617.99;11424.000;    0.000;    0.000
 618.15;17996.000;    0.000;    0.000
 618.31; 8920.000;    0.000;    0.000
 618.47; 9100.000;    0.000;    0.000
 618.63;20792.000;    0.000;    0.000
 618.78;18968.000;    0.000;    0.000
 618.94;16512.000;    0.000;    0.000
 619.10;14584.000;    0.000;    0.000
 619.26;12296.000;    0.000;    0.000
 619.42;13668.000;    0.000;    0.000
 619.58;12888.000;    0.000;    0.000
 619.74;15192.000;    0.000;    0.000
 619.90;16616.000;    0.000;    0.000
 620.06;12064.000;    0.000;    0.000
 620.22;12500.000;    0.000;    0.000
 620.38;12208.000;    0.000;    0.000
 620.54;13964.000;    0.000;    0.000
 620.70;14516.000;    0.000;    0.000
 620.85;13524.000;    0.000;    0.000
 621.01;14544.000;    0.000;    0.000
 621.17;13484.000;    0.000;    0.000
 621.33;13820.000;    0.000;    0.000
 621.49; 7488.000;    0.000;    0.000
 621.65;12932.000;    0.000;    0.000
 621.81;14932.000;    0.000;    0.000
 621.97;13072.000;    0.000;    0.000
 622.13;11528.000;    0.000;    0.000
 622.29; 8316.000;    0.000;    0.000
 622.45;15892.000;    0.000;    0.000
 622.61;16228.000;    0.000;    0.000
 622.76;13064.000;    0.000;    0.000
 622.92;13124.000;    0.000;    0.000
 623.08; 7152.000;    0.000;    0.000
 623.24; 9760.000;    0.000;    0.000
 623.40;15280.000;    0.000;    0.000
 623.56; 7416.000;    0.000;    0.000
 623.72;10820.000;    0.000;    0.000
 623.88;20644.000;    0.000;    0.000
 624.04; 8492.000;    0.000;    0.000
 624.20;16632.000;    0.000;    0.000
 624.36;22304.000;    0.000;    0.000
 624.51;22480.000;    0.000;    0.000
 624.67;14016.000;    0.000;    0.000
 624.83;11092.000;    0.000;    0.000
 624.99;10416.000;    0.000;    0.000
 625.15;12472.000;    0.000;    0.000
 625.31;10616.000;    0.000;    0.000
 625.47;18372.000;    0.000;    0.000
 625.63;20184.000;    0.000;    0.000
 625.79;17088.000;    0.000;    0.000
 625.95;18548.000;    0.000;    0.000
 626.10;10400.000;    0.000;    0.000
 626.26;15204.000;    0.000;    0.000
 626.42;10300.000;    0.000;    0.000
 626.58;14780.000;    0.000;    0.000
 626.74;17040.000;    0.000;    0.000
 626.90;15264.000;    0.000;    0.000
 627.06;23200.000;    0.000;    0.000
 627.22;16672.000;    0.000;    0.000
 627.38;11284.000;    0.000;    0.000
 627.53;19964.000;    0.000;    0.000
 627.69;14360.000;    0.000;    0.000
 627.85; 9496.000;    0.000;    0.000
 628.01;11312.000;    0.000;    0.000
 628.17;15420.000;    0.000;    0.000
 628.33;13436.000;    0.000;    0.000
 628.49; 6992.000;    0.000;    0.000
 628.65;10480.000;    0.000;    0.000
 628.80;14784.000;    0.000;    0.000
 628.96;10512.000;    0.000;    0.000
 629.12;18704.000;    0.000;    0.000
 629.28;13884.000;    0.000;    0.000
 629.44;13048.000;    0.000;    0.000
 629.60;14060.000;    0.000;    0.000
 629.76;12564.000;    0.000;    0.000
 629.92;10772.000;    0.000;    0.000
 630.07;16100.000;    0.000;    0.000
 630.23;15172.000;    0.000;    0.000
 630.39;10668.000;    0.000;    0.000
 630.55;13304.000;    0.000;    0.000
 630.71;13512.000;    0.000;    0.000
 630.87;10872.000;    0.000;    0.000
 631.03; 8392.000;    0.000;    0.000
 631.19;21664.000;    0.000;    0.000
 631.34;12716.000;    0.000;    0.000
 631.50;14044.000;    0.000;    0.000
 631.66; 9444.000;    0.000;    0.000
 631.82;14016.000;    0.000;    0.000
 631.98;10456.000;    0.000;    0.000
 632.14;20800.000;    0.000;    0.000
 632.30;15376.000;    0.000;    0.000
 632.45;13740.000;    0.000;    0.000
 632.61;13908.000;    0.000;    0.000
 632.77;20924.000;    0.000;    0.000
 632.93;10996.000;    0.000;    0.000
 633.09;13416.000;    0.000;    0.000
 633.25;15524.000;    0.000;    0.000
 633.41;15856.000;    0.000;    0.000
 633.56;12772.000;    0.000;    0.000
 633.72; 8968.000;    0.000;    0.000
 633.88;13528.000;    0.000;    0.000
 634.04;16488.000;    0.000;    0.000
 634.20;11268.000;    0.000;    0.000
 634.36; 7456.000;    0.000;    0.000
 634.52;11468.000;    0.000;    0.000
 634.67;12352.000;    0.000;    0.000
 634.83; 9088.000;    0.000;    0.000
 634.99;15232.000;    0.000;    0.000
 635.15;18720.000;    0.000;    0.000
 635.31;12408.000;    0.000;    0.000
 635.47;12312.000;    0.000;    0.000
 635.62; 9828.000;    0.000;    0.000
 635.78;15344.000;    0.000;    0.000
 635.94; 9724.000;    0.000;    0.000
 636.10; 7428.000;    0.000;    0.000
 636.26;12880.000;    0.000;    0.000
 636.42;12760.000;    0.000;    0.000
 636.58;12836.000;    0.000;    0.000
 636.73;16424.000;    0.000;    0.000
 636.89;18332.000;    0.000;    0.000
 637.05;12776.000;    0.000;    0.000
 637.21;15404.000;    0.000;    0.000
 637.37; 9200.000;    0.000;    0.000
 637.53;10688.000;    0.000;    0.000
 637.68;14940.000;    0.000;    0.000
 637.84;12280.000;    0.000;    0.000
 638.00;11780.000;    0.000;    0.000
 638.16;21300.000;    0.000;    0.000
 638.32;15616.000;    0.000;    0.000
 638.48;11952.000;    0.000;    0.000
 638.63;10532.000;    0.000;    0.000
 638.79;22408.000;    0.000;    0.000
 638.95;14180.000;    0.000;    0.000
 639.11;11424.000;    0.000;    0.000
 639.27; 9464.000;    0.000;    0.000
 639.43;12160.000;    0.000;    0.000
 639.58;14412.000;    0.000;    0.000
 639.74;17216.000;    0.000;    0.000
 639.90; 8256.000;    0.000;    0.000
 640.06;15808.000;    0.000;    0.000
 640.22;19728.000;    0.000;    0.000
 640.37;14808.000;    0.000;    0.000
 640.53; 5960.000;    0.000;    0.000
 640.69; 9424.000;    0.000;    0.000
 640.85;11320.000;    0.000;    0.000
 641.01;12168.000;    0.000;    0.000
 641.17;11884.000;    0.000;    0.000
 641.32;12248.000;    0.000;    0.000
 641.48;11884.000;    0.000;    0.000
 641.64;13596.000;    0.000;    0.000
 641.80;15380.000;    0.000;    0.000
 641.96; 9944.000;    0.000;    0.000
 642.11;15928.000;    0.000;    0.000
 642.27;18488.000;    0.000;    0.000
 642.43;15492.000;    0.000;    0.000
 642.59;10680.000;    0.000;    0.000
 642.75;11568.000;    0.000;    0.000
 642.90; 9104.000;    0.000;    0.000
 643.06;14272.000;    0.000;    0.000
 643.22;14896.000;    0.000;    0.000
 643.38;13952.000;    0.000;    0.000
 643.54;10652.000;    0.000;    0.000
 643.69;11660.000;    0.000;    0.000
 643.85;11624.000;    0.000;    0.000
 644.01;18384.000;    0.000;    0.000
 644.17;10256.000;    0.000;    0.000
 644.33; 9908.000;    0.000;    0.000
 644.48;14448.000;    0.000;    0.000
 644.64;15688.000;    0.000;    0.000
 644.80;11712.000;    0.000;    0.000
 644.96;13316.000;    0.000;    0.000
 645.12; 9960.000;    0.000;    0.000
 645.27;10576.000;    0.000;    0.000
 645.43;15372.000;    0.000;    0.000
 645.59;18248.000;    0.000;    0.000
 645.75;13988.000;    0.000;    0.000
 645.91;13164.000;    0.000;    0.000
 646.06;24068.000;    0.000;    0.000
 646.22;16088.000;    0.000;    0.000
 646.38;18660.000;    0.000;    0.000
 646.54;14544.000;    0.000;    0.000
 646.70; 9244.000;    0.000;    0.000
 646.85; 8528.000;    0.000;    0.000
 647.01;15824.000;    0.000;    0.000
 647.17;16340.000;    0.000;    0.000
 647.33;12760.000;    0.000;    0.000
 647.48;20792.000;    0.000;    0.000
 647.64;10920.000;    0.000;    0.000
 647.80;16212.000;    0.000;    0.000
 647.96;16104.000;    0.000;    0.000
 648.12;14516.000;    0.000;    0.000
 648.27; 9516.000;    0.000;    0.000
 648.43;15180.000;    0.000;    0.000
 648.59;17008.000;    0.000;    0.000
 648.75;10892.000;    0.000;    0.000
 648.90;11016.000;    0.000;    0.000
 649.06;12368.000;    0.000;    0.000
 649.22;14744.000;    0.000;    0.000
 649.38;12212.000;    0.000;    0.000
 649.54; 9356.000;    0.000;    0.000
 649.69; 9056.000;    0.000;    0.000
 649.85;11540.000;    0.000;    0.000
 650.01;13852.000;    0.000;    0.000
 650.17;11216.000;    0.000;    0.000
 650.32;11096.000;    0.000;    0.000
 650.48;11892.000;    0.000;    0.000
 650.64;12176.000;    0.000;    0.000
 650.80;14340.000;    0.000;    0.000
 650.95;15336.000;    0.000;    0.000
 651.11;14984.000;    0.000;    0.000
 651.27;14100.000;    0.000;    0.000
 651.43;17656.000;    0.000;    0.000
 651.58;14912.000;    0.000;    0.000
 651.74;13792.000;    0.000;    0.000
 651.90;11420.000;    0.000;    0.000
 652.06;10052.000;    0.000;    0.000
 652.22;17360.000;    0.000;    0.000
 652.37;17872.000;    0.000;    0.000
 652.53;11200.000;    0.000;    0.000
 652.69; 6792.000;    0.000;    0.000
 652.85;17228.000;    0.000;    0.000
 653.00;11284.000;    0.000;    0.000
 653.16;11324.000;    0.000;    0.000
 653.32; 9764.000;    0.000;    0.000
 653.48;11932.000;    0.000;    0.000
 653.63;10552.000;    0.000;    0.000
 653.79;14924.000;    0.000;    0.000
 653.95; 7272.000;    0.000;    0.000
 654.11; 7356.000;    0.000;    0.000
 654.26;20864.000;    0.000;    0.000
 654.42; 7244.000;    0.000;    0.000
 654.58; 6928.000;    0.000;    0.000
 654.74;18724.000;    0.000;    0.000
 654.89; 7380.000;    0.000;    0.000
 655.05;10136.000;    0.000;    0.000
 655.21;12292.000;    0.000;    0.000
 655.36;15528.000;    0.000;    0.000
 655.52;14504.000;    0.000;    0.000
 655.68;12788.000;    0.000;    0.000
 655.84;13812.000;    0.000;    0.000
 655.99;12352.000;    0.000;    0.000
 656.15;11340.000;    0.000;    0.000
 656.31; 9384.000;    0.000;    0.000
 656.47; 9344.000;    0.000;    0.000
 656.62; 8064.000;    0.000;    0.000
 656.78;13804.000;    0.000;    0.000
 656.94; 9616.000;    0.000;    0.000
 657.10; 9628.000;    0.000;    0.000
 657.25;14536.000;    0.000;    0.000
 657.41;10660.000;    0.000;    0.000
 657.57;15204.000;    0.000;    0.000
 657.72; 8868.000;    0.000;    0.000
 657.88;12756.000;    0.000;    0.000
 658.04; 8756.000;    0.000;    0.000
 658.20; 9972.000;    0.000;    0.000
 658.35; 6228.000;    0.000;    0.000
 658.51; 8184.000;    0.000;    0.000
 658.67;12916.000;    0.000;    0.000
 658.83;12952.000;    0.000;    0.000
 658.98;12852.000;    0.000;    0.000
 659.14;12028.000;    0.000;    0.000
 659.30;18564.000;    0.000;    0.000
 659.45;11300.000;    0.000;    0.000
 659.61;17092.000;    0.000;    0.000
 659.77;14120.000;    0.000;    0.000
 659.93;11584.000;    0.000;    0.000
 660.08;14688.000;    0.000;    0.000
 660.24;18692.000;    0.000;    0.000
 660.40;15792.000;    0.000;    0.000
 660.55;10616.000;    0.000;    0.000
 660.71;10284.000;    0.000;    0.000
 660.87; 8408.000;    0.000;    0.000
 661.03;12580.000;    0.000;    0.000
 661.18;11052.000;    0.000;    0.000
 661.34; 9604.000;    0.000;    0.000
 661.50; 9300.000;    0.000;    0.000
 661.65; 8432.000;    0.000;    0.000
 661.81;13676.000;    0.000;    0.000
 661.97;13712.000;    0.000;    0.000
 662.13;15800.000;    0.000;    0.000
 662.28;15504.000;    0.000;    0.000
 662.44;18480.000;    0.000;    0.000
 662.60;12032.000;    0.000;    0.000
 662.75; 9804.000;    0.000;    0.000
 662.91;20648.000;    0.000;    0.000
 663.07;10812.000;    0.000;    0.000
 663.22;12316.000;    0.000;    0.000
 663.38;13352.000;    0.000;    0.000
 663.54;16856.000;    0.000;    0.000
 663.69;10300.000;    0.000;    0.000
 663.85; 8648.000;    0.000;    0.000
 664.01;15688.000;    0.000;    0.000
 664.17; 8804.000;    0.000;    0.000
 664.32;10788.000;    0.000;    0.000
 664.48;10548.000;    0.000;    0.000
 664.64;14260.000;    0.000;    0.000
 664.79;18972.000;    0.000;    0.000
 664.95; 8760.000;    0.000;    0.000
 665.11;11216.000;    0.000;    0.000
 665.26;15884.000;    0.000;    0.000
 665.42;12272.000;    0.000;    0.000
 665.58;18840.000;    0.000;    0.000
 665.73; 9964.000;    0.000;    0.000
 665.89;12752.000;    0.000;    0.000
 666.05; 8868.000;    0.000;    0.000
 666.21;10440.000;    0.000;    0.000
 666.36; 8704.000;    0.000;    0.000
 666.52; 9704.000;    0.000;    0.000
 666.68;15820.000;    0.000;    0.000
 666.83;12056.000;    0.000;    0.000
 666.99; 7344.000;    0.000;    0.000
 667.15;12620.000;    0.000;    0.000
 667.30;17356.000;    0.000;    0.000
 667.46;12704.000;    0.000;    0.000
 667.62;12724.000;    0.000;    0.000
 667.77; 9264.000;    0.000;    0.000
 667.93;12196.000;    0.000;    0.000
 668.09;20732.000;    0.000;    0.000
 668.24; 6656.000;    0.000;    0.000
 668.40; 9660.000;    0.000;    0.000
 668.56;16208.000;    0.000;    0.000
 668.71;13532.000;    0.000;    0.000
 668.87; 8228.000;    0.000;    0.000
 669.03;16632.000;    0.000;    0.000
 669.18;12636.000;    0.000;    0.000
 669.34;11312.000;    0.000;    0.000
 669.50; 7240.000;    0.000;    0.000
 669.65; 6820.000;    0.000;    0.000
 669.81;25308.000;    0.000;    0.000
 669.97;11700.000;    0.000;    0.000
 670.12; 8324.000;    0.000;    0.000
 670.28;12192.000;    0.000;    0.000
 670.44;10428.000;    0.000;    0.000
 670.59; 9140.000;    0.000;    0.000
 670.75; 9352.000;    0.000;    0.000
 670.91;17244.000;    0.000;    0.000
 671.06;11308.000;    0.000;    0.000
 671.22; 7280.000;    0.000;    0.000
 671.38; 6996.000;    0.000;    0.000
 671.53; 6004.000;    0.000;    0.000
 671.69;10304.000;    0.000;    0.000
 671.84;10708.000;    0.000;    0.000
 672.00; 9580.000;    0.000;    0.000
 672.16;13556.000;    0.000;    0.000
 672.31;18660.000;    0.000;    0.000
 672.47;17396.000;    0.000;    0.000
 672.63;13716.000;    0.000;    0.000
 672.78;12548.000;    0.000;    0.000
 672.94;14776.000;    0.000;    0.000
 673.10;16356.000;    0.000;    0.000
 673.25;11188.000;    0.000;    0.000
 673.41;11880.000;    0.000;    0.000
 673.57;23544.000;    0.000;    0.000
 673.72;10228.000;    0.000;    0.000
 673.88;14492.000;    0.000;    0.000
 674.03;11956.000;    0.000;    0.000
 674.19;11944.000;    0.000;    0.000
 674.35;13448.000;    0.000;    0.000
 674.50;17252.000;    0.000;    0.000
 674.66;12720.000;    0.000;    0.000
 674.82;10632.000;    0.000;    0.000
 674.97; 8880.000;    0.000;    0.000
 675.13;11100.000;    0.000;    0.000
 675.29;10488.000;    0.000;    0.000
 675.44;10432.000;    0.000;    0.000
 675.60;17832.000;    0.000;    0.000
 675.75;12120.000;    0.000;    0.000
 675.91;17764.000;    0.000;    0.000
 676.07;16272.000;    0.000;    0.000
 676.22;14164.000;    0.000;    0.000
 676.38;14160.000;    0.000;    0.000
 676.54;15324.000;    0.000;    0.000
 676.69;13444.000;    0.000;    0.000
 676.85;15260.000;    0.000;    0.000
 677.00;15968.000;    0.000;    0.000
 677.16;10552.000;    0.000;    0.000
 677.32;15576.000;    0.000;    0.000
 677.47;13072.000;    0.000;    0.000
 677.63; 9272.000;    0.000;    0.000
 677.79;13360.000;    0.000;    0.000
 677.94;13712.000;    0.000;    0.000
 678.10;11856.000;    0.000;    0.000
 678.25;20168.000;    0.000;    0.000
 678.41; 6864.000;    0.000;    0.000
 678.57;10324.000;    0.000;    0.000
 678.72;11068.000;    0.000;    0.000
 678.88;11660.000;    0.000;    0.000
 679.03; 9204.000;    0.000;    0.000
 679.19;12096.000;    0.000;    0.000
 679.35;16648.000;    0.000;    0.000
 679.50;12832.000;    0.000;    0.000
 679.66;16220.000;    0.000;    0.000
 679.82;11636.000;    0.000;    0.000
 679.97;12032.000;    0.000;    0.000
 680.13;15028.000;    0.000;    0.000
 680.28;10312.000;    0.000;    0.000
 680.44; 7956.000;    0.000;    0.000
 680.60;11520.000;    0.000;    0.000
 680.75; 9724.000;    0.000;    0.000
 680.91;20292.000;    0.000;    0.000
 681.06;14428.000;    0.000;    0.000
 681.22;10016.000;    0.000;    0.000
 681.38;17448.000;    0.000;    0.000
 681.53;13292.000;    0.000;    0.000
 681.69;11216.000;    0.000;    0.000
 681.84;18964.000;    0.000;    0.000
 682.00; 8028.000;    0.000;    0.000
 682.16;12572.000;    0.000;    0.000
 682.31;13384.000;    0.000;    0.000
 682.47; 9676.000;    0.000;    0.000
 682.62;10828.000;    0.000;    0.000
 682.78;16576.000;    0.000;    0.000
 682.93;12200.000;    0.000;    0.000
 683.09;17100.000;    0.000;    0.000
 683.25;15516.000;    0.000;    0.000
 683.40; 9468.000;    0.000;    0.000
 683.56;13464.000;    0.000;    0.000
 683.71; 8304.000;    0.000;    0.000
 683.87; 9696.000;    0.000;    0.000
 684.03;10032.000;    0.000;    0.000
 684.18;16168.000;    0.000;    0.000
 684.34;15652.000;    0.000;    0.000
 684.49;20228.000;    0.000;    0.000
 684.65;14080.000;    0.000;    0.000
 684.80;12912.000;    0.000;    0.000
 684.96;13176.000;    0.000;    0.000
 685.12;13448.000;    0.000;    0.000
 685.27;17864.000;    0.000;    0.000
 685.43; 8384.000;    0.000;    0.000
 685.58;14536.000;    0.000;    0.000
 685.74;10032.000;    0.000;    0.000
 685.90;11244.000;    0.000;    0.000
 686.05;11508.000;    0.000;    0.000
 686.21;10984.000;    0.000;    0.000
 686.36; 9172.000;    0.000;    0.000
 686.52; 8020.000;    0.000;    0.000
 686.67; 8432.000;    0.000;    0.000
 686.83;10716.000;    0.000;    0.000
 686.99;11788.000;    0.000;    0.000
 687.14;17408.000;    0.000;    0.000
 687.30;14320.000;    0.000;    0.000
 687.45;13920.000;    0.000;    0.000
 687.61; 8356.000;    0.000;    0.000
 687.76;14504.000;    0.000;    0.000
 687.92;15768.000;    0.000;    0.000
 688.07; 6960.000;    0.000;    0.000
 688.23; 9452.000;    0.000;    0.000
 688.39;13580.000;    0.000;    0.000
 688.54;14364.000;    0.000;    0.000
 688.70;11436.000;    0.000;    0.000
 688.85;14552.000;    0.000;    0.000
 689.01; 9784.000;    0.000;    0.000
 689.16;12440.000;    0.000;    0.000
 689.32;16140.000;    0.000;    0.000
 689.47; 9204.000;    0.000;    0.000
 689.63;18460.000;    0.000;    0.000
 689.79; 8052.000;    0.000;    0.000
 689.94;12328.000;    0.000;    0.000
 690.10; 8600.000;    0.000;    0.000
 690.25; 9852.000;    0.000;    0.000
 690.41;16672.000;    0.000;    0.000
 690.56;13136.000;    0.000;    0.000
 690.72; 9252.000;    0.000;    0.000
 690.87;23000.000;    0.000;    0.000
 691.03;16468.000;    0.000;    0.000
 691.18;13724.000;    0.000;    0.000
 691.34; 9752.000;    0.000;    0.000
 691.50;15428.000;    0.000;    0.000
 691.65;16080.000;    0.000;    0.000
 691.81;13904.000;    0.000;    0.000
 691.96;15464.000;    0.000;    0.000
 692.12;12816.000;    0.000;    0.000
 692.27;14560.000;    0.000;    0.000
 692.43;11752.000;    0.000;    0.000
 692.58; 8772.000;    0.000;    0.000
 692.74;13972.000;    0.000;    0.000
 692.89;17280.000;    0.000;    0.000
 693.05;11556.000;    0.000;    0.000
 693.20; 9192.000;    0.000;    0.000
 693.36;15372.000;    0.000;    0.000
 693.52;16340.000;    0.000;    0.000
 693.67;16024.000;    0.000;    0.000
 693.83;12156.000;    0.000;    0.000
 693.98;15100.000;    0.000;    0.000
 694.14; 9872.000;    0.000;    0.000
 694.29; 9952.000;    0.000;    0.000
 694.45; 8992.000;    0.000;    0.000
 694.60;14548.000;    0.000;    0.000
 694.76;11368.000;    0.000;    0.000
 694.91;10448.000;    0.000;    0.000
 695.07;12172.000;    0.000;    0.000
 695.22; 7944.000;    0.000;    0.000
 695.38;25624.000;    0.000;    0.000
 695.53;11220.000;    0.000;    0.000
 695.69;10448.000;    0.000;    0.000
 695.84; 6800.000;    0.000;    0.000
 696.00;12940.000;    0.000;    0.000
 696.15;11708.000;    0.000;    0.000
 696.31;11124.000;    0.000;    0.000
 696.46;10144.000;    0.000;    0.000
 696.62;17156.000;    0.000;    0.000
 696.77;13964.000;    0.000;    0.000
 696.93;14068.000;    0.000;    0.000
 697.08;10920.000;    0.000;    0.000
 697.24;10000.000;    0.000;    0.000
 697.40;15492.000;    0.000;    0.000
 697.55;12860.000;    0.000;    0.000
 697.71;10460.000;    0.000;    0.000
 697.86; 9184.000;    0.000;    0.000
 698.02;14932.000;    0.000;    0.000
 698.17; 9028.000;    0.000;    0.000
 698.33;10836.000;    0.000;    0.000
 698.48;16356.000;    0.000;    0.000
 698.64;12132.000;    0.000;    0.000
 698.79;11180.000;    0.000;    0.000
 698.95;16316.000;    0.000;    0.000
 699.10;14356.000;    0.000;    0.000
 699.26;11300.000;    0.000;    0.000
 699.41; 8632.000;    0.000;    0.000
 699.57;12888.000;    0.000;    0.000
 699.72; 7952.000;    0.000;    0.000
 699.88;11928.000;    0.000;    0.000
 700.03;11052.000;    0.000;    0.000
 700.19;10640.000;    0.000;    0.000
 700.34;14924.000;    0.000;    0.000
 700.49;20444.000;    0.000;    0.000
 700.65; 8592.000;    0.000;    0.000
 700.80; 9704.000;    0.000;    0.000
 700.96;18592.000;    0.000;    0.000
 701.11;15144.000;    0.000;    0.000
 701.27;15880.000;    0.000;    0.000
 701.42;10620.000;    0.000;    0.000
 701.58; 9076.000;    0.000;    0.000
 701.73;14572.000;    0.000;    0.000
 701.89;11408.000;    0.000;    0.000
 702.04; 6404.000;    0.000;    0.000
 702.20;14920.000;    0.000;    0.000
 702.35;19220.000;    0.000;    0.000
 702.51; 6216.000;    0.000;    0.000
 702.66;10364.000;    0.000;    0.000
 702.82;13352.000;    0.000;    0.000
 702.97; 9756.000;    0.000;    0.000
 703.13; 9612.000;    0.000;    0.000
 703.28;12152.000;    0.000;    0.000
 703.44; 7476.000;    0.000;    0.000
 703.59;11688.000;    0.000;    0.000
 703.75;12824.000;    0.000;    0.000
 703.90;14728.000;    0.000;    0.000
 704.06; 6932.000;    0.000;    0.000
 704.21;13632.000;    0.000;    0.000
 704.36; 7632.000;    0.000;    0.000
 704.52;14664.000;    0.000;    0.000
 704.67;15312.000;    0.000;    0.000
 704.83;11180.000;    0.000;    0.000
 704.98; 9444.000;    0.000;    0.000
 705.14;10116.000;    0.000;    0.000
 705.29;12320.000;    0.000;    0.000
 705.45;12004.000;    0.000;    0.000
 705.60;17364.000;    0.000;    0.000
 705.76; 7664.000;    0.000;    0.000
 705.91;18200.000;    0.000;    0.000
 706.07;10956.000;    0.000;    0.000
 706.22;11216.000;    0.000;    0.000
 706.37;17064.000;    0.000;    0.000
 706.53;11296.000;    0.000;    0.000
 706.68;11560.000;    0.000;    0.000
 706.84;13804.000;    0.000;    0.000
 706.99;12996.000;    0.000;    0.000
 707.15;11068.000;    0.000;    0.000
 707.30;19932.000;    0.000;    0.000
 707.46; 8912.000;    0.000;    0.000
 707.61;10816.000;    0.000;    0.000
 707.77; 7028.000;    0.000;    0.000
 707.92;15348.000;    0.000;    0.000
 708.07;11040.000;    0.000;    0.000
 708.23;11552.000;    0.000;    0.000
 708.38; 8084.000;    0.000;    0.000
 708.54;15104.000;    0.000;    0.000
 708.69;10308.000;    0.000;    0.000
 708.85;10180.000;    0.000;    0.000
 709.00;14160.000;    0.000;    0.000
 709.16;14112.000;    0.000;    0.000
 709.31;13464.000;    0.000;    0.000
 709.46;13096.000;    0.000;    0.000
 709.62; 9468.000;    0.000;    0.000
 709.77; 9460.000;    0.000;    0.000
 709.93; 6476.000;    0.000;    0.000
 710.08;13008.000;    0.000;    0.000
 710.24;10188.000;    0.000;    0.000
 710.39;11884.000;    0.000;    0.000
 710.54; 5772.000;    0.000;    0.000
 710.70;11864.000;    0.000;    0.000
 710.85;16356.000;    0.000;    0.000
 711.01;10076.000;    0.000;    0.000
 711.16;14832.000;    0.000;    0.000
 711.32; 6392.000;    0.000;    0.000
 711.47; 9508.000;    0.000;    0.000
 711.62;16452.000;    0.000;    0.000
 711.78; 5760.000;    0.000;    0.000
 711.93;11028.000;    0.000;    0.000
 712.09; 8940.000;    0.000;    0.000
 712.24;11088.000;    0.000;    0.000
 712.40; 8412.000;    0.000;    0.000
 712.55;15856.000;    0.000;    0.000
 712.70; 8884.000;    0.000;    0.000
 712.86;15644.000;    0.000;    0.000
 713.01;12408.000;    0.000;    0.000
 713.17;12064.000;    0.000;    0.000
 713.32; 6980.000;    0.000;    0.000
 713.48;14164.000;    0.000;    0.000
 713.63; 8908.000;    0.000;    0.000
 713.78;13176.000;    0.000;    0.000
 713.94;14700.000;    0.000;    0.000
 714.09;10456.000;    0.000;    0.000
 714.25; 7944.000;    0.000;    0.000
 714.40;13920.000;    0.000;    0.000
 714.55; 9916.000;    0.000;    0.000
 714.71;10172.000;    0.000;    0.000
 714.86;12616.000;    0.000;    0.000
 715.02; 7996.000;    0.000;    0.000
 715.17; 8108.000;    0.000;    0.000
 715.32;14908.000;    0.000;    0.000
 715.48;10888.000;    0.000;    0.000
 715.63;10028.000;    0.000;    0.000
 715.79;18624.000;    0.000;    0.000
 715.94; 8228.000;    0.000;    0.000
 716.09; 7048.000;    0.000;    0.000
 716.25;20736.000;    0.000;    0.000
 716.40; 9320.000;    0.000;    0.000
 716.56;11820.000;    0.000;    0.000
 716.71; 9796.000;    0.000;    0.000
 716.86;11928.000;    0.000;    0.000
 717.02; 9208.000;    0.000;    0.000
 717.17;18388.000;    0.000;    0.000
 717.33;10416.000;    0.000;    0.000
 717.48;11724.000;    0.000;    0.000
 717.63;10688.000;    0.000;    0.000
 717.79;14852.000;    0.000;    0.000
 717.94;13052.000;    0.000;    0.000
 718.10;11768.000;    0.000;    0.000
 718.25; 9512.000;    0.000;    0.000
 718.40; 9000.000;    0.000;    0.000
 718.56; 6440.000;    0.000;    0.000
 718.71; 9244.000;    0.000;    0.000
 718.87;13204.000;    0.000;    0.000
 719.02;13316.000;    0.000;    0.000
 719.17;12588.000;    0.000;    0.000
 719.33;19052.000;    0.000;    0.000
 719.48;16200.000;    0.000;    0.000
 719.63;11272.000;    0.000;    0.000
 719.79;18924.000;    0.000;    0.000
 719.94; 8508.000;    0.000;    0.000
 720.10; 7800.000;    0.000;    0.000
 720.25;10968.000;    0.000;    0.000
 720.40; 8780.000;    0.000;    0.000
 720.56;18040.000;    0.000;    0.000
 720.71;16240.000;    0.000;    0.000
 720.86;10740.000;    0.000;    0.000
 721.02;11184.000;    0.000;    0.000
 721.17; 9900.000;    0.000;    0.000
 721.33;15256.000;    0.000;    0.000
 721.48; 6908.000;    0.000;    0.000
 721.63;15040.000;    0.000;    0.000
 721.79;24440.000;    0.000;    0.000
 721.94;11320.000;    0.000;    0.000
 722.09;14176.000;    0.000;    0.000
 722.25; 9676.000;    0.000;    0.000
 722.40;13896.000;    0.000;    0.000
 722.55;13444.000;    0.000;    0.000
 722.71;12592.000;    0.000;    0.000
 722.86;11728.000;    0.000;    0.000
 723.02;15496.000;    0.000;    0.000
 723.17;12556.000;    0.000;    0.000
 723.32;16984.000;    0.000;    0.000
 723.48;15576.000;    0.000;    0.000
 723.63;15036.000;    0.000;    0.000
 723.78;18280.000;    0.000;    0.000
 723.94;15400.000;    0.000;    0.000
 724.09; 9264.000;    0.000;    0.000
 724.24;17628.000;    0.000;    0.000
 724.40;16092.000;    0.000;    0.000
 724.55;23304.000;    0.000;    0.000
 724.70; 9304.000;    0.000;    0.000
 724.86;11524.000;    0.000;    0.000
 725.01;13748.000;    0.000;    0.000
 725.17;12300.000;    0.000;    0.000
 725.32; 8684.000;    0.000;    0.000
 725.47;18588.000;    0.000;    0.000
 725.63;17420.000;    0.000;    0.000
 725.78;19064.000;    0.000;    0.000
 725.93;17372.000;    0.000;    0.000
 726.09;10812.000;    0.000;    0.000
 726.24;13048.000;    0.000;    0.000
 726.39;11472.000;    0.000;    0.000
 726.55;13628.000;    0.000;    0.000
 726.70;14072.000;    0.000;    0.000
 726.85;12736.000;    0.000;    0.000
 727.01;16188.000;    0.000;    0.000
 727.16;10552.000;    0.000;    0.000
 727.31;10708.000;    0.000;    0.000
 727.47;10992.000;    0.000;    0.000
 727.62;17000.000;    0.000;    0.000
 727.77;13456.000;    0.000;    0.000
 727.93;12132.000;    0.000;    0.000
 728.08;17148.000;    0.000;    0.000
 728.23;12920.000;    0.000;    0.000
 728.39; 9748.000;    0.000;    0.000
 728.54;11104.000;    0.000;    0.000
 728.69;14552.000;    0.000;    0.000
 728.85;14684.000;    0.000;    0.000
 729.00; 8700.000;    0.000;    0.000
 729.15;13184.000;    0.000;    0.000
 729.31;14672.000;    0.000;    0.000
 729.46;15164.000;    0.000;    0.000
 729.61;16060.000;    0.000;    0.000
 729.76;10120.000;    0.000;    0.000
 729.92;15976.000;    0.000;    0.000
 730.07; 7288.000;    0.000;    0.000
 730.22; 8696.000;    0.000;    0.000
 730.38;10376.000;    0.000;    0.000
 730.53;18776.000;    0.000;    0.000
 730.68;10380.000;    0.000;    0.000
 730.84;16860.000;    0.000;    0.000
 730.99;20480.000;    0.000;    0.000
 731.14;14788.000;    0.000;    0.000
 731.30;17664.000;    0.000;    0.000
 731.45;14680.000;    0.000;    0.000
 731.60;21140.000;    0.000;    0.000
 731.76;13756.000;    0.000;    0.000
 731.91;10204.000;    0.000;    0.000
 732.06; 9492.000;    0.000;    0.000
 732.21;26180.000;    0.000;    0.000
 732.37;10348.000;    0.000;    0.000
 732.52;17340.000;    0.000;    0.000
 732.67; 8284.000;    0.000;    0.000
 732.83;12356.000;    0.000;    0.000
 732.98;13840.000;    0.000;    0.000
 733.13;18912.000;    0.000;    0.000
 733.29;18364.000;    0.000;    0.000
 733.44;19292.000;    0.000;    0.000
 733.59; 8536.000;    0.000;    0.000
 733.74;16320.000;    0.000;    0.000
 733.90;10952.000;    0.000;    0.000
 734.05;15024.000;    0.000;    0.000
 734.20;10572.000;    0.000;    0.000
 734.36;12464.000;    0.000;    0.000
 734.51; 4872.000;    0.000;    0.000
 734.66;12432.000;    0.000;    0.000
 734.82; 9368.000;    0.000;    0.000
 734.97;12632.000;    0.000;    0.000
 735.12;13268.000;    0.000;    0.000
 735.27;16476.000;    0.000;    0.000
 735.43;16452.000;    0.000;    0.000
 735.58; 9620.000;    0.000;    0.000
 735.73;14912.000;    0.000;    0.000
 735.89; 7764.000;    0.000;    0.000
 736.04;17240.000;    0.000;    0.000
 736.19;14788.000;    0.000;    0.000
 736.34;11032.000;    0.000;    0.000
 736.50;13932.000;    0.000;    0.000
 736.65;14868.000;    0.000;    0.000
 736.80;16532.000;    0.000;    0.000
 736.95;14060.000;    0.000;    0.000
 737.11;10576.000;    0.000;    0.000
 737.26;12652.000;    0.000;    0.000
 737.41;15496.000;    0.000;    0.000
 737.57;13176.000;    0.000;    0.000
 737.72; 8376.000;    0.000;    0.000
 737.87; 8672.000;    0.000;    0.000
 738.02;15528.000;    0.000;    0.000
 738.18; 9664.000;    0.000;    0.000
 738.33;11164.000;    0.000;    0.000
 738.48;18324.000;    0.000;    0.000
 738.63;13220.000;    0.000;    0.000
 738.79;11020.000;    0.000;    0.000
 738.94; 5644.000;    0.000;    0.000
 739.09; 8260.000;    0.000;    0.000
 739.25;13264.000;    0.000;    0.000
 739.40;17648.000;    0.000;    0.000
 739.55;10796.000;    0.000;    0.000
 739.70;13780.000;    0.000;    0.000
 739.86;12184.000;    0.000;    0.000
 740.01;24752.000;    0.000;    0.000
 740.16; 8252.000;    0.000;    0.000
 740.31;14092.000;    0.000;    0.000
 740.47;12432.000;    0.000;    0.000
 740.62;13036.000;    0.000;    0.000
 740.77; 8612.000;    0.000;    0.000
 740.92;12044.000;    0.000;    0.000
 741.08;10872.000;    0.000;    0.000
 741.23;12312.000;    0.000;    0.000
 741.38;19584.000;    0.000;    0.000
 741.53;16952.000;    0.000;    0.000
 741.69; 9944.000;    0.000;    0.000
 741.84;13352.000;    0.000;    0.000
 741.99;13088.000;    0.000;    0.000
 742.14;10780.000;    0.000;    0.000
 742.30;11328.000;    0.000;    0.000
 742.45;12444.000;    0.000;    0.000
 742.60; 7152.000;    0.000;    0.000
 742.75;13736.000;    0.000;    0.000
 742.91;14804.000;    0.000;    0.000
 743.06; 6924.000;    0.000;    0.000
 743.21;15272.000;    0.000;    0.000
 743.36;11516.000;    0.000;    0.000
 743.52;19788.000;    0.000;    0.000
 743.67;12332.000;    0.000;    0.000
 743.82;12308.000;    0.000;    0.000
 743.97; 8868.000;    0.000;    0.000
 744.12;16572.000;    0.000;    0.000
 744.28;17304.000;    0.000;    0.000
 744.43;18004.000;    0.000;    0.000
 744.58; 9580.000;    0.000;    0.000
 744.73;12268.000;    0.000;    0.000
 744.89;12436.000;    0.000;    0.000
 745.04; 8964.000;    0.000;    0.000
 745.19;12152.000;    0.000;    0.000
 745.34;16580.000;    0.000;    0.000
 745.50;11336.000;    0.000;    0.000
 745.65;12164.000;    0.000;    0.000
 745.80;11440.000;    0.000;    0.000
 745.95; 8620.000;    0.000;    0.000
 746.10;10544.000;    0.000;    0.000
 746.26;11412.000;    0.000;    0.000
 746.41;10600.000;    0.000;    0.000
 746.56;13688.000;    0.000;    0.000
 746.71;11152.000;    0.000;    0.000
 746.87; 7604.000;    0.000;    0.000
 747.02;15516.000;    0.000;    0.000
 747.17;14284.000;    0.000;    0.000
 747.32;11212.000;    0.000;    0.000
 747.47;13516.000;    0.000;    0.000
 747.63;14712.000;    0.000;    0.000
 747.78;17708.000;    0.000;    0.000
 747.93;15772.000;    0.000;    0.000
 748.08;12344.000;    0.000;    0.000
 748.23; 9956.000;    0.000;    0.000
 748.39;13220.000;    0.000;    0.000
 748.54;15680.000;    0.000;    0.000
 748.69; 8212.000;    0.000;    0.000
 748.84; 8792.000;    0.000;    0.000
 748.99; 9060.000;    0.000;    0.000
 749.15; 9944.000;    0.000;    0.000
 749.30;18336.000;    0.000;    0.000
 749.45;14104.000;    0.000;    0.000
 749.60;21308.000;    0.000;    0.000
 749.75;12300.000;    0.000;    0.000
 749.91;14536.000;    0.000;    0.000
 750.06;11612.000;    0.000;    0.000
 750.21;11880.000;    0.000;    0.000
 750.36;11760.000;    0.000;    0.000
 750.51;15724.000;    0.000;    0.000
 750.67;13928.000;    0.000;    0.000
 750.82; 7956.000;    0.000;    0.000
 750.97;13220.000;    0.000;    0.000
 751.12; 8084.000;    0.000;    0.000
 751.27;11344.000;    0.000;    0.000
 751.43;12812.000;    0.000;    0.000
 751.58; 7844.000;    0.000;    0.000
 751.73; 9256.000;    0.000;    0.000
 751.88;14852.000;    0.000;    0.000
 752.03;14120.000;    0.000;    0.000
 752.19; 6484.000;    0.000;    0.000
 752.34;14060.000;    0.000;    0.000
 752.49;15388.000;    0.000;    0.000
 752.64;10216.000;    0.000;    0.000
 752.79; 7484.000;    0.000;    0.000
 752.94;12012.000;    0.000;    0.000
 753.10;12216.000;    0.000;    0.000
 753.25;15180.000;    0.000;    0.000
 753.40; 9492.000;    0.000;    0.000
 753.55;10436.000;    0.000;    0.000
 753.70;18000.000;    0.000;    0.000
 753.85;16876.000;    0.000;    0.000
 754.01;11500.000;    0.000;    0.000
 754.16;10920.000;    0.000;    0.000
 754.31;12240.000;    0.000;    0.000
 754.46;12428.000;    0.000;    0.000
 754.61;14872.000;    0.000;    0.000
 754.76;11672.000;    0.000;    0.000
 754.92; 7944.000;    0.000;    0.000
 755.07;19864.000;    0.000;    0.000
 755.22; 9436.000;    0.000;    0.000
 755.37;13816.000;    0.000;    0.000
 755.52;12672.000;    0.000;    0.000
 755.67;14012.000;    0.000;    0.000
 755.83; 8340.000;    0.000;    0.000
 755.98; 7692.000;    0.000;    0.000
 756.13;12536.000;    0.000;    0.000
 756.28;12812.000;    0.000;    0.000
 756.43;10632.000;    0.000;    0.000
 756.58;25736.000;    0.000;    0.000
 756.74;15500.000;    0.000;    0.000
 756.89; 9872.000;    0.000;    0.000
 757.04;18256.000;    0.000;    0.000
 757.19; 9548.000;    0.000;    0.000
 757.34;13468.000;    0.000;    0.000
 757.49;10780.000;    0.000;    0.000
 757.65;12432.000;    0.000;    0.000
 757.80;13828.000;    0.000;    0.000
 757.95;15896.000;    0.000;    0.000
 758.10;23340.000;    0.000;    0.000
 758.25; 5900.000;    0.000;    0.000
 758.40;11404.000;    0.000;    0.000
 758.55;11552.000;    0.000;    0.000
 758.71;25796.000;    0.000;    0.000
 758.86;17252.000;    0.000;    0.000
 759.01;11640.000;    0.000;    0.000
 759.16; 8748.000;    0.000;    0.000
 759.31;22128.000;    0.000;    0.000
 759.46; 8496.000;    0.000;    0.000
 759.61;12840.000;    0.000;    0.000
 759.77; 8292.000;    0.000;    0.000
 759.92; 8272.000;    0.000;    0.000
 760.07;11616.000;    0.000;    0.000
 760.22;11816.000;    0.000;    0.000
 760.37;13980.000;    0.000;    0.000
 760.52;18748.000;    0.000;    0.000
 760.67;14156.000;    0.000;    0.000
 760.82; 9124.000;    0.000;    0.000
 760.98;15040.000;    0.000;    0.000
 761.13;10372.000;    0.000;    0.000
 761.28;20060.000;    0.000;    0.000
 761.43; 8344.000;    0.000;    0.000
 761.58;10336.000;    0.000;    0.000
 761.73;12512.000;    0.000;    0.000
 761.88;19152.000;    0.000;    0.000
 762.03;14800.000;    0.000;    0.000
 762.19;20168.000;    0.000;    0.000
 762.34;10812.000;    0.000;    0.000
 762.49;10808.000;    0.000;    0.000
 762.64;12392.000;    0.000;    0.000
 762.79; 9708.000;    0.000;    0.000
 762.94;11424.000;    0.000;    0.000
 763.09;11728.000;    0.000;    0.000
 763.24;12088.000;    0.000;    0.000
 763.40;16476.000;    0.000;    0.000
 763.55;10760.000;    0.000;    0.000
 763.70; 9028.000;    0.000;    0.000
 763.85; 5672.000;    0.000;    0.000
 764.00; 8064.000;    0.000;    0.000
 764.15;12044.000;    0.000;    0.000
 764.30; 6748.000;    0.000;    0.000
 764.45; 8196.000;    0.000;    0.000
 764.60;15792.000;    0.000;    0.000
 764.76;11700.000;    0.000;    0.000
 764.91; 7608.000;    0.000;    0.000
 765.06;12852.000;    0.000;    0.000
 765.21; 8808.000;    0.000;    0.000
 765.36;14340.000;    0.000;    0.000
 765.51; 8068.000;    0.000;    0.000
 765.66;14644.000;    0.000;    0.000
 765.81; 8564.000;    0.000;    0.000
 765.96;13716.000;    0.000;    0.000
 766.11;11920.000;    0.000;    0.000
 766.27;12592.000;    0.000;    0.000
 766.42;12976.000;    0.000;    0.000
 766.57;15116.000;    0.000;    0.000
 766.72; 9504.000;    0.000;    0.000
 766.87;13000.000;    0.000;    0.000
 767.02;10000.000;    0.000;    0.000
 767.17;13928.000;    0.000;    0.000
 767.32;10836.000;    0.000;    0.000
 767.47;15324.000;    0.000;    0.000
 767.62;14180.000;    0.000;    0.000
 767.77;12384.000;    0.000;    0.000
 767.93; 8308.000;    0.000;    0.000
 768.08;12904.000;    0.000;    0.000
 768.23;10892.000;    0.000;    0.000
 768.38;14676.000;    0.000;    0.000
 768.53;16396.000;    0.000;    0.000
 768.68;16988.000;    0.000;    0.000
 768.83;10132.000;    0.000;    0.000
 768.98; 9708.000;    0.000;    0.000
 769.13;10668.000;    0.000;    0.000
 769.28;15732.000;    0.000;    0.000
 769.43;14284.000;    0.000;    0.000
 769.58;15448.000;    0.000;    0.000
 769.73;13936.000;    0.000;    0.000
 769.89;12876.000;    0.000;    0.000
 770.04;12612.000;    0.000;    0.000
 770.19;13048.000;    0.000;    0.000
 770.34; 6924.000;    0.000;    0.000
 770.49;15276.000;    0.000;    0.000
 770.64;11900.000;    0.000;    0.000
 770.79;19212.000;    0.000;    0.000
 770.94;10480.000;    0.000;    0.000
 771.09;14912.000;    0.000;    0.000
 771.24;19724.000;    0.000;    0.000
 771.39;17076.000;    0.000;    0.000
 771.54;13716.000;    0.000;    0.000
 771.69;12840.000;    0.000;    0.000
 771.84;12416.000;    0.000;    0.000
 771.99;12820.000;    0.000;    0.000
 772.15; 8680.000;    0.000;    0.000
 772.30;10756.000;    0.000;    0.000
 772.45;18276.000;    0.000;    0.000
 772.60; 8992.000;    0.000;    0.000
 772.75;11988.000;    0.000;    0.000
 772.90;13140.000;    0.000;    0.000
 773.05;13128.000;    0.000;    0.000
 773.20;14040.000;    0.000;    0.000
 773.35; 8060.000;    0.000;    0.000
 773.50;11760.000;    0.000;    0.000
 773.65; 8676.000;    0.000;    0.000
 773.80;13836.000;    0.000;    0.000
 773.95; 6844.000;    0.000;    0.000
 774.10; 8640.000;    0.000;    0.000
 774.25; 6244.000;    0.000;    0.000
 774.40;10088.000;    0.000;    0.000
 774.55;11948.000;    0.000;    0.000
 774.70;16368.000;    0.000;    0.000
 774.85;18244.000;    0.000;    0.000
 775.00;13700.000;    0.000;    0.000
 775.16;15820.000;    0.000;    0.000
 775.31; 7360.000;    0.000;    0.000
 775.46; 9956.000;    0.000;    0.000
 775.61;18676.000;    0.000;    0.000
 775.76;12392.000;    0.000;    0.000
 775.91; 8876.000;    0.000;    0.000
 776.06; 9896.000;    0.000;    0.000
 776.21;10524.000;    0.000;    0.000
 776.36;12576.000;    0.000;    0.000
 776.51;12748.000;    0.000;    0.000
 776.66;11860.000;    0.000;    0.000
 776.81;16288.000;    0.000;    0.000
 776.96;11480.000;    0.000;    0.000
 777.11; 6660.000;    0.000;    0.000
 777.26;17464.000;    0.000;    0.000
 777.41;10912.000;    0.000;    0.000
 777.56; 9588.000;    0.000;    0.000
 777.71;16948.000;    0.000;    0.000
 777.86; 9852.000;    0.000;    0.000
 778.01; 9432.000;    0.000;    0.000
 778.16;13676.000;    0.000;    0.000
 778.31; 8692.000;    0.000;    0.000
 778.46;12628.000;    0.000;    0.000
 778.61;19532.000;    0.000;    0.000
 778.76; 7772.000;    0.000;    0.000
 778.91; 8140.000;    0.000;    0.000
 779.06;11968.000;    0.000;    0.000
 779.21; 8420.000;    0.000;    0.000
 779.36;10580.000;    0.000;    0.000
 779.51;10208.000;    0.000;    0.000
 779.66;11260.000;    0.000;    0.000
 779.81;15148.000;    0.000;    0.000
 779.96; 7480.000;    0.000;    0.000
 780.11; 8876.000;    0.000;    0.000
 780.26;10616.000;    0.000;    0.000
 780.41;14536.000;    0.000;    0.000
 780.56; 9148.000;    0.000;    0.000
 780.71;12900.000;    0.000;    0.000
 780.86;12836.000;    0.000;    0.000
 781.01;12724.000;    0.000;    0.000
 781.16;13264.000;    0.000;    0.000
 781.31; 6916.000;    0.000;    0.000
 781.46;10956.000;    0.000;    0.000
 781.61; 9740.000;    0.000;    0.000
 781.76; 6416.000;    0.000;    0.000
 781.91; 7276.000;    0.000;    0.000
 782.06; 8908.000;    0.000;    0.000
 782.21;11780.000;    0.000;    0.000
 782.36;11688.000;    0.000;    0.000
 782.51;16512.000;    0.000;    0.000
 782.66; 6540.000;    0.000;    0.000
 782.81; 6880.000;    0.000;    0.000
 782.96; 9436.000;    0.000;    0.000
 783.11;14024.000;    0.000;    0.000
 783.26; 9112.000;    0.000;    0.000
 783.41;13028.000;    0.000;    0.000
 783.56;14052.000;    0.000;    0.000
 783.71;15380.000;    0.000;    0.000
 783.86;10528.000;    0.000;    0.000
 784.01;11096.000;    0.000;    0.000
 784.16;15556.000;    0.000;    0.000
 784.31; 7728.000;    0.000;    0.000
 784.46; 9828.000;    0.000;    0.000
 784.61; 9728.000;    0.000;    0.000
 784.76;17284.000;    0.000;    0.000
 784.91;10892.000;    0.000;    0.000
 785.06;11372.000;    0.000;    0.000
 785.21;14716.000;    0.000;    0.000
 785.36; 9596.000;    0.000;    0.000
 785.51;12640.000;    0.000;    0.000
 785.66; 9744.000;    0.000;    0.000
 785.81;10092.000;    0.000;    0.000
 785.96; 7100.000;    0.000;    0.000
 786.11;14344.000;    0.000;    0.000
 786.26;15204.000;    0.000;    0.000
 786.41;10356.000;    0.000;    0.000
 786.56;12044.000;    0.000;    0.000
 786.71;12976.000;    0.000;    0.000
 786.86;11292.000;    0.000;    0.000
 787.01;15904.000;    0.000;    0.000
 787.16;11000.000;    0.000;    0.000
 787.31;12320.000;    0.000;    0.000
 787.46;15520.000;    0.000;    0.000
 787.61;17612.000;    0.000;    0.000
 787.75;17216.000;    0.000;    0.000
 787.90;15244.000;    0.000;    0.000
 788.05;10764.000;    0.000;    0.000
 788.20;12448.000;    0.000;    0.000
 788.35; 9092.000;    0.000;    0.000
 788.50;10280.000;    0.000;    0.000
 788.65;20596.000;    0.000;    0.000
 788.80;12940.000;    0.000;    0.000
 788.95; 9524.000;    0.000;    0.000
 789.10;12688.000;    0.000;    0.000
 789.25; 9496.000;    0.000;    0.000
 789.40;17224.000;    0.000;    0.000
 789.55;13012.000;    0.000;    0.000
 789.70; 8160.000;    0.000;    0.000
 789.85;17600.000;    0.000;    0.000
 790.00;16608.000;    0.000;    0.000
 790.15;17960.000;    0.000;    0.000
 790.30;10448.000;    0.000;    0.000
 790.45;17856.000;    0.000;    0.000
 790.60;11460.000;    0.000;    0.000
 790.74; 7740.000;    0.000;    0.000
 790.89; 9916.000;    0.000;    0.000
 791.04; 8500.000;    0.000;    0.000
 791.19;21644.000;    0.000;    0.000
 791.34; 8208.000;    0.000;    0.000
 791.49;10920.000;    0.000;    0.000
 791.64; 9240.000;    0.000;    0.000
 791.79;10212.000;    0.000;    0.000
 791.94;13424.000;    0.000;    0.000
 792.09;17144.000;    0.000;    0.000
 792.24;10484.000;    0.000;    0.000
 792.39;13336.000;    0.000;    0.000
 792.54;11484.000;    0.000;    0.000
 792.69;16680.000;    0.000;    0.000
 792.83;12352.000;    0.000;    0.000
 792.98;11572.000;    0.000;    0.000
 793.13;10964.000;    0.000;    0.000
 793.28;15252.000;    0.000;    0.000
 793.43; 8768.000;    0.000;    0.000
 793.58;19796.000;    0.000;    0.000
 793.73;14036.000;    0.000;    0.000
 793.88;11372.000;    0.000;    0.000
 794.03; 8688.000;    0.000;    0.000
 794.18;14992.000;    0.000;    0.000
 794.33; 9196.000;    0.000;    0.000
 794.48; 8016.000;    0.000;    0.000
 794.63; 9704.000;    0.000;    0.000
 794.77;16336.000;    0.000;    0.000
 794.92; 9768.000;    0.000;    0.000
 795.07;11960.000;    0.000;    0.000
 795.22; 9568.000;    0.000;    0.000
 795.37;13364.000;    0.000;    0.000
 795.52;11384.000;    0.000;    0.000
 795.67; 8944.000;    0.000;    0.000
 795.82; 9804.000;    0.000;    0.000
 795.97;11136.000;    0.000;    0.000
 796.12;11864.000;    0.000;    0.000
 796.27;11788.000;    0.000;    0.000
 796.41;14808.000;    0.000;    0.000
 796.56;16104.000;    0.000;    0.000
 796.71; 9788.000;    0.000;    0.000
 796.86;16812.000;    0.000;    0.000
 797.01;18880.000;    0.000;    0.000
 797.16;12768.000;    0.000;    0.000
 797.31; 8716.000;    0.000;    0.000
 797.46;12388.000;    0.000;    0.000
 797.61;11832.000;    0.000;    0.000
 797.76;14960.000;    0.000;    0.000
 797.90;15116.000;    0.000;    0.000
 798.05; 8576.000;    0.000;    0.000
 798.20;11356.000;    0.000;    0.000
 798.35;17076.000;    0.000;    0.000
 798.50;19592.000;    0.000;    0.000
 798.65;14444.000;    0.000;    0.000
 798.80;10568.000;    0.000;    0.000
 798.95;14052.000;    0.000;    0.000
 799.10; 7056.000;    0.000;    0.000
 799.24;15960.000;    0.000;    0.000
 799.39;11296.000;    0.000;    0.000
 799.54;18064.000;    0.000;    0.000
 799.69; 7476.000;    0.000;    0.000
 799.84;15712.000;    0.000;    0.000
 799.99; 9180.000;    0.000;    0.000
 800.14; 9164.000;    0.000;    0.000
 800.29;20548.000;    0.000;    0.000
 800.43; 7080.000;    0.000;    0.000
 800.58;17200.000;    0.000;    0.000
 800.73;15688.000;    0.000;    0.000
 800.88;16244.000;    0.000;    0.000
 801.03;14328.000;    0.000;    0.000
 801.18;12644.000;    0.000;    0.000
 801.33;11888.000;    0.000;    0.000
 801.48;11000.000;    0.000;    0.000
 801.62;13192.000;    0.000;    0.000
 801.77;16008.000;    0.000;    0.000
 801.92;12572.000;    0.000;    0.000
 802.07;11740.000;    0.000;    0.000
 802.22;14660.000;    0.000;    0.000
 802.37;15756.000;    0.000;    0.000
 802.52;15228.000;    0.000;    0.000
 802.66;15184.000;    0.000;    0.000
 802.81; 9004.000;    0.000;    0.000
 802.96;13784.000;    0.000;    0.000
 803.11;18204.000;    0.000;    0.000
 803.26;15832.000;    0.000;    0.000
 803.41; 7788.000;    0.000;    0.000
 803.56; 9164.000;    0.000;    0.000
 803.70;12224.000;    0.000;    0.000
 803.85;12628.000;    0.000;    0.000
 804.00; 8928.000;    0.000;    0.000
 804.15;11960.000;    0.000;    0.000
 804.30;13572.000;    0.000;    0.000
 804.45;10096.000;    0.000;    0.000
 804.60; 8924.000;    0.000;    0.000
 804.74;13524.000;    0.000;    0.000
 804.89; 9584.000;    0.000;    0.000
 805.04;10484.000;    0.000;    0.000
 805.19; 9784.000;    0.000;    0.000
 805.34;11788.000;    0.000;    0.000
 805.49; 6776.000;    0.000;    0.000
 805.63; 9264.000;    0.000;    0.000
 805.78;23456.000;    0.000;    0.000
 805.93;15264.000;    0.000;    0.000
 806.08;11024.000;    0.000;    0.000
 806.23; 8584.000;    0.000;    0.000
 806.38; 9100.000;    0.000;    0.000
 806.53;10668.000;    0.000;    0.000
 806.67;14140.000;    0.000;    0.000
 806.82; 9684.000;    0.000;    0.000
 806.97; 8344.000;    0.000;    0.000
 807.12; 8180.000;    0.000;    0.000
 807.27;11952.000;    0.000;    0.000
 807.42;10356.000;    0.000;    0.000
 807.56; 7440.000;    0.000;    0.000
 807.71;17256.000;    0.000;    0.000
 807.86;11376.000;    0.000;    0.000
 808.01;17332.000;    0.000;    0.000
 808.16;17996.000;    0.000;    0.000
 808.30; 7596.000;    0.000;    0.000
 808.45;15736.000;    0.000;    0.000
 808.60; 9032.000;    0.000;    0.000
 808.75;11312.000;    0.000;    0.000
 808.90;13784.000;    0.000;    0.000
 809.05;14132.000;    0.000;    0.000
 809.19;15572.000;    0.000;    0.000
 809.34;10536.000;    0.000;    0.000
 809.49;14328.000;    0.000;    0.000
 809.64;12588.000;    0.000;    0.000
 809.79; 9304.000;    0.000;    0.000
 809.93; 9340.000;    0.000;    0.000
 810.08;10356.000;    0.000;    0.000
 810.23;12832.000;    0.000;    0.000
 810.38;14280.000;    0.000;    0.000
 810.53;12724.000;    0.000;    0.000
 810.68;11524.000;    0.000;    0.000
 810.82;17724.000;    0.000;    0.000
 810.97;13928.000;    0.000;    0.000
 811.12;11476.000;    0.000;    0.000
 811.27; 9964.000;    0.000;    0.000
 811.42; 8900.000;    0.000;    0.000
 811.56;16808.000;    0.000;    0.000
 811.71;15896.000;    0.000;    0.000
 811.86; 8960.000;    0.000;    0.000
 812.01;13032.000;    0.000;    0.000
 812.16; 9696.000;    0.000;    0.000
 812.30;12032.000;    0.000;    0.000
 812.45;12760.000;    0.000;    0.000
 812.60;12088.000;    0.000;    0.000
 812.75; 7700.000;    0.000;    0.000
 812.90;14916.000;    0.000;    0.000
 813.04;15028.000;    0.000;    0.000
 813.19;12488.000;    0.000;    0.000
 813.34; 9664.000;    0.000;    0.000
 813.49;17140.000;    0.000;    0.000
 813.63;13168.000;    0.000;    0.000
 813.78;15428.000;    0.000;    0.000
 813.93;12948.000;    0.000;    0.000
 814.08;12652.000;    0.000;    0.000
 814.23;15916.000;    0.000;    0.000
 814.37;19584.000;    0.000;    0.000
 814.52;16252.000;    0.000;    0.000
 814.67;14228.000;    0.000;    0.000
 814.82;14616.000;    0.000;    0.000
 814.97;11076.000;    0.000;    0.000
 815.11;22820.000;    0.000;    0.000
 815.26;17488.000;    0.000;    0.000
 815.41;13148.000;    0.000;    0.000
 815.56;12268.000;    0.000;    0.000
 815.70;16412.000;    0.000;    0.000
 815.85;15840.000;    0.000;    0.000
 816.00;11368.000;    0.000;    0.000
 816.15;12084.000;    0.000;    0.000
 816.29;12744.000;    0.000;    0.000
 816.44;15764.000;    0.000;    0.000
 816.59;11184.000;    0.000;    0.000
 816.74;12680.000;    0.000;    0.000
 816.89;13140.000;    0.000;    0.000
 817.03;15484.000;    0.000;    0.000
 817.18; 7796.000;    0.000;    0.000
 817.33;16224.000;    0.000;    0.000
 817.48; 9888.000;    0.000;    0.000
 817.62;11380.000;    0.000;    0.000
 817.77;11364.000;    0.000;    0.000
 817.92;15984.000;    0.000;    0.000
 818.07;14948.000;    0.000;    0.000
 818.21;12672.000;    0.000;    0.000
 818.36;11148.000;    0.000;    0.000
 818.51;13504.000;    0.000;    0.000
 818.66;11076.000;    0.000;    0.000
 818.80; 7880.000;    0.000;    0.000
 818.95;10388.000;    0.000;    0.000
 819.10; 9296.000;    0.000;    0.000
 819.25; 7432.000;    0.000;    0.000
 819.39;11040.000;    0.000;    0.000
 819.54;15708.000;    0.000;    0.000
 819.69; 9224.000;    0.000;    0.000
 819.84; 8200.000; 2060.000;    0.000
 819.98;11476.000; 1928.000;    0.000
 820.13;14612.000; 2464.000;    0.000
 820.28;15452.000; 2580.000;    0.000
 820.43;11600.000; 1912.000;    0.000
 820.57;16840.000; 2056.000;    0.000
 820.72;17424.000; 2508.000;    0.000
 820.87;12592.000; 2328.000;    0.000
 821.02;15500.000; 2048.000;    0.000
 821.16;12528.000; 1944.000;    0.000
 821.31;10908.000; 2336.000;    0.000
 821.46;12080.000; 2360.000;    0.000
 821.61;14512.000; 2064.000;    0.000
 821.75;18812.000; 2160.000;    0.000
 821.90;11140.000; 2256.000;    0.000
 822.05;13588.000; 2624.000;    0.000
 822.19;10464.000; 1992.000;    0.000
 822.34;15720.000; 2096.000;    0.000
 822.49;10584.000; 2320.000;    0.000
 822.64;19328.000; 2588.000;    0.000
 822.78;12028.000; 1980.000;    0.000
 822.93;11696.000; 2020.000;    0.000
 823.08;15876.000; 2288.000;    0.000
 823.23;18528.000; 2564.000;    0.000
 823.37;11304.000; 2000.000;    0.000
 823.52;11416.000; 2004.000;    0.000
 823.67;15940.000; 2592.000;    0.000
 823.81;19192.000; 2672.000;    0.000
 823.96;20272.000; 2128.000;    0.000
 824.11; 9404.000; 2008.000;    0.000
 824.26;15416.000; 2596.000;    0.000
 824.40;19444.000; 2620.000;    0.000
 824.55; 7888.000; 2008.000;    0.000
 824.70;12660.000; 2048.000;    0.000
 824.84;17192.000; 2180.000;    0.000
 824.99;14496.000; 2420.000;    0.000
 825.14;14276.000; 2048.000;    0.000
 825.29;13856.000; 2140.000;    0.000
 825.43;15076.000; 2556.000;    0.000
 825.58;13840.000; 2628.000;    0.000
 825.73; 7124.000; 1936.000;    0.000
 825.87;10748.000; 1972.000;    0.000
 826.02; 8368.000; 2472.000;    0.000
 826.17;13296.000; 2668.000;    0.000
 826.31;10772.000; 1956.000;    0.000
 826.46; 7492.000; 1892.000;    0.000
 826.61;14760.000; 2496.000;    0.000
 826.76;16356.000; 2712.000;    0.000
 826.90;13756.000; 2028.000;    0.000
 827.05;11544.000; 1984.000;    0.000
 827.20; 6412.000; 2500.000;    0.000
 827.34;14328.000; 2416.000;    0.000
 827.49;11016.000; 1964.000;    0.000
 827.64;11376.000; 2008.000;    0.000
 827.78;18016.000; 2436.000;    0.000
 827.93;13592.000; 2556.000;    0.000
 828.08; 9516.000; 1988.000;    0.000
 828.23;11800.000; 2032.000;    0.000
 828.37;11252.000; 2244.000;    0.000
 828.52; 7712.000; 2608.000;    0.000
 828.67;12088.000; 1936.000;    0.000
 828.81;13144.000; 2024.000;    0.000
 828.96;10836.000; 2428.000;    0.000
 829.11;14708.000; 2544.000;    0.000
 829.25;12888.000; 2016.000;    0.000
 829.40;13324.000; 1984.000;    0.000
 829.55;18028.000; 2248.000;    0.000
 829.69;20268.000; 2576.000;    0.000
 829.84;15088.000; 1932.000;    0.000
 829.99; 8512.000; 1964.000;    0.000
 830.13;11916.000; 2492.000;    0.000
 830.28;12900.000; 2684.000;    0.000
 830.43;16752.000; 2124.000;    0.000
 830.57;14736.000; 2040.000;    0.000
 830.72;13352.000; 2348.000;    0.000
 830.87;18032.000; 2368.000;    0.000
 831.01; 9292.000; 2104.000;    0.000
 831.16;11100.000; 2156.000;    0.000
 831.31;10060.000; 2472.000;    0.000
 831.45;14100.000; 2604.000;    0.000
 831.60;15464.000; 2156.000;    0.000
 831.75;16336.000; 2132.000;    0.000
 831.89; 9468.000; 2244.000;    0.000
 832.04;10000.000; 2620.000;    0.000
 832.19;12288.000; 1936.000;    0.000
 832.33;10276.000; 1816.000;    0.000
 832.48;11060.000; 2356.000;    0.000
 832.63;15564.000; 2560.000;    0.000
 832.77; 6632.000; 1892.000;    0.000
 832.92; 9932.000; 1880.000;    0.000
 833.07;11540.000; 2120.000;    0.000
 833.21;16996.000; 2568.000;    0.000
 833.36; 9064.000; 1896.000;    0.000
 833.51;12568.000; 1904.000;    0.000
 833.65;10828.000; 2236.000;    0.000
 833.80;10832.000; 2464.000;    0.000
 833.95;15964.000; 1904.000;    0.000
 834.09;14128.000; 1884.000;    0.000
 834.24;15400.000; 2280.000;    0.000
 834.39;10864.000; 2684.000;    0.000
 834.53; 9596.000; 1796.000;    0.000
 834.68; 9436.000; 1808.000;    0.000
 834.82;18252.000; 2396.000;    0.000
 834.97;18408.000; 2596.000;    0.000
 835.12;13396.000; 2016.000;    0.000
 835.26;13012.000; 1936.000;    0.000
 835.41;13920.000; 2420.000;    0.000
 835.56;13476.000; 2636.000;    0.000
 835.70; 7616.000; 1900.000;    0.000
 835.85; 9460.000; 1884.000;    0.000
 836.00;16112.000; 2588.000;    0.000
 836.14;15168.000; 2580.000;    0.000
 836.29;11784.000; 1880.000;    0.000
 836.43;19468.000; 1880.000;    0.000
 836.58;15980.000; 2696.000;    0.000
 836.73;13660.000; 2592.000;    0.000
 836.87;17276.000; 2076.000;    0.000
 837.02;14516.000; 1912.000;    0.000
 837.17;15680.000; 2672.000;    0.000
 837.31;13292.000; 2440.000;    0.000
 837.46;16704.000; 1996.000;    0.000
 837.61; 7240.000; 1960.000;    0.000
 837.75;17620.000; 2640.000;    0.000
 837.90;14396.000; 2756.000;    0.000
 838.04; 8968.000; 1880.000;    0.000
 838.19;19524.000; 2072.000;    0.000
 838.34;10824.000; 2696.000;    0.000
 838.48;14268.000; 2428.000;    0.000
 838.63;11064.000; 1952.000;    0.000
 838.77;10464.000; 1876.000;    0.000
 838.92;19996.000; 2596.000;    0.000
 839.07;12932.000; 2672.000;    0.000
 839.21; 9836.000; 1864.000;    0.000
 839.36;15884.000; 1940.000;    0.000
 839.51;16772.000; 2428.000;    0.000
 839.65;16904.000; 2452.000;    0.000
 839.80; 9296.000; 1872.000;    0.000
 839.94;18692.000; 2008.000;    0.000
 840.09;13888.000; 2464.000;    0.000
 840.24;14588.000; 2376.000;    0.000
 840.38; 7968.000; 1748.000;    0.000
 840.53;12848.000; 1776.000;    0.000
 840.67; 9608.000; 2292.000;    0.000
 840.82;19712.000; 2704.000;    0.000
 840.97;15072.000; 1896.000;    0.000
 841.11; 9376.000; 1864.000;    0.000
 841.26;15232.000; 2252.000;    0.000
 841.40;13480.000; 2592.000;    0.000
 841.55;11644.000; 1908.000;    0.000
 841.70;12272.000; 1736.000;    0.000
 841.84;15696.000; 2256.000;    0.000
 841.99;20596.000; 2656.000;    0.000
 842.13;13332.000; 1932.000;    0.000
 842.28;13240.000; 1928.000;    0.000
 842.43;13152.000; 2228.000;    0.000
 842.57;18320.000; 2636.000;    0.000
 842.72;16800.000; 2088.000;    0.000
 842.86;11328.000; 1872.000;    0.000
 843.01;15664.000; 2440.000;    0.000
 843.15;12552.000; 2744.000;    0.000
 843.30;15608.000; 1912.000;    0.000
 843.45;18672.000; 1984.000;    0.000
 843.59;19348.000; 2396.000;    0.000
 843.74;15172.000; 2480.000;    0.000
 843.88;13680.000; 1904.000;    0.000
 844.03;10812.000; 1896.000;    0.000
 844.18;11820.000; 2728.000;    0.000
 844.32;18068.000; 2576.000;    0.000
 844.47;15968.000; 1868.000;    0.000
 844.61; 9836.000; 1860.000;    0.000
 844.76;16308.000; 2568.000;    0.000
 844.90;18416.000; 2968.000;    0.000
 845.05;16348.000; 2008.000;    0.000
 845.20;14740.000; 1952.000;    0.000
 845.34;12312.000; 2372.000;    0.000
 845.49;15632.000; 3000.000;    0.000
 845.63;16836.000; 1960.000;    0.000
 845.78;10860.000; 1864.000;    0.000
 845.92;17584.000; 2380.000;    0.000
 846.07;13632.000; 2484.000;    0.000
 846.21;12024.000; 1844.000;    0.000
 846.36;18356.000; 2028.000;    0.000
 846.51;13528.000; 2628.000;    0.000
 846.65;18068.000; 2536.000;    0.000
 846.80;13644.000; 1924.000;    0.000
 846.94;14628.000; 1948.000;    0.000
 847.09;10984.000; 2364.000;    0.000
 847.23;13040.000; 2500.000;    0.000
 847.38;13040.000; 1956.000;    0.000
 847.53;11964.000; 1816.000;    0.000
 847.67;12872.000; 2212.000;    0.000
 847.82;15568.000; 2700.000;    0.000
 847.96; 8980.000; 1952.000;    0.000
 848.11;16444.000; 1964.000;    0.000
 848.25;12244.000; 2560.000;    0.000
 848.40;13656.000; 2512.000;    0.000
 848.54; 7484.000; 1908.000;    0.000
 848.69;14364.000; 1948.000;    0.000
 848.83;24004.000; 2464.000;    0.000
 848.98;12976.000; 2556.000;    0.000
 849.13;10844.000; 1864.000;    0.000
 849.27;18132.000; 1936.000;    0.000
 849.42;10936.000; 2100.000;    0.000
 849.56;18552.000; 2872.000;    0.000
 849.71; 9044.000; 1896.000;    0.000
 849.85;13224.000; 1904.000;    0.000
 850.00;25232.000; 2496.000;    0.000
 850.14;22088.000; 2560.000;    0.000
 850.29;20176.000; 2120.000;    0.000
 850.43;17064.000; 1876.000;    0.000
 850.58;13844.000; 2536.000;    0.000
 850.72;10268.000; 2760.000;    0.000
 850.87;10372.000; 1852.000;    0.000
 851.02;12016.000; 1928.000;    0.000
 851.16;16868.000; 2640.000;    0.000
 851.31;18100.000; 2568.000;    0.000
 851.45;12352.000; 1860.000;    0.000
 851.60;15644.000; 1940.000;    0.000
 851.74;14968.000; 2520.000;    0.000
 851.89;14580.000; 2676.000;    0.000
 852.03; 9136.000; 1880.000;    0.000
 852.18;11800.000; 1904.000;    0.000
 852.32;11112.000; 2536.000;    0.000
 852.47;13428.000; 2456.000;    0.000
 852.61;12112.000; 1920.000;    0.000
 852.76;11068.000; 1844.000;    0.000
 852.90;15156.000; 2448.000;    0.000
 853.05;20240.000; 2796.000;    0.000
 853.19;12188.000; 1872.000;    0.000
 853.34;15880.000; 1908.000;    0.000
 853.48;13352.000; 2348.000;    0.000
 853.63;16440.000; 2672.000;    0.000
 853.77; 8784.000; 1896.000;    0.000
 853.92;13300.000; 1860.000;    0.000
 854.06;12616.000; 2184.000;    0.000
 854.21;15712.000; 2596.000;    0.000
 854.35; 9980.000; 1832.000;    0.000
 854.50;15180.000; 1892.000;    0.000
 854.64;15664.000; 2436.000;    0.000
 854.79;13188.000; 2484.000;    0.000
 854.93;13020.000; 1964.000;    0.000
 855.08;17052.000; 1924.000;    0.000
 855.22;18660.000; 2728.000;    0.000
 855.37;15580.000; 2516.000;    0.000
 855.51;10996.000; 1856.000;    0.000
 855.66;13500.000; 1820.000;    0.000
 855.80;14132.000; 2444.000;    0.000
 855.95;12688.000; 2760.000;    0.000
 856.09;20684.000; 1916.000;    0.000
 856.24;10624.000; 1884.000;    0.000
 856.38;13512.000; 2068.000;    0.000
 856.53;15920.000; 2336.000;    0.000
 856.67;10516.000; 1840.000;    0.000
 856.82;13500.000; 1852.000;    0.000
 856.96;10644.000; 2308.000;    0.000
 857.11;21652.000; 2656.000;    0.000
 857.25; 9164.000; 1784.000;    0.000
 857.40;10232.000; 1808.000;    0.000
 857.54;18136.000; 2512.000;    0.000
 857.69;13944.000; 2248.000;    0.000
 857.83;13588.000; 1884.000;    0.000
 857.98;28408.000; 2044.000;    0.000
 858.12;12316.000; 2276.000;    0.000
 858.27;13784.000; 2588.000;    0.000
 858.41;12592.000; 1988.000;    0.000
 858.56;12088.000; 1864.000;    0.000
 858.70;10608.000; 2220.000;    0.000
 858.85;12136.000; 2304.000;    0.000
 858.99; 7856.000; 1880.000;    0.000
 859.13;14384.000; 1756.000;    0.000
 859.28;17216.000; 2392.000;    0.000
 859.42;15712.000; 2540.000;    0.000
 859.57;11672.000; 1936.000;    0.000
 859.71; 8512.000; 1772.000;    0.000
 859.86;17228.000; 2428.000;    0.000
 860.00;17544.000; 2276.000;    0.000
 860.15; 7688.000; 1872.000;    0.000
 860.29;13844.000; 1876.000;    0.000
 860.44;22340.000; 2388.000;    0.000
 860.58;22156.000; 3084.000;    0.000
 860.73;13156.000; 2100.000;    0.000
 860.87;16384.000; 1980.000;    0.000
 861.02;11612.000; 2284.000;    0.000
 861.16;14756.000; 2804.000;    0.000
 861.30;14788.000; 1888.000;    0.000
 861.45;10564.000; 1772.000;    0.000
 861.59;10792.000; 2404.000;    0.000
 861.74;14552.000; 2380.000;    0.000
 861.88;13248.000; 1916.000;    0.000
 862.03;11268.000; 1904.000;    0.000
 862.17;12620.000; 2516.000;    0.000
 862.32;12100.000; 2536.000;    0.000
 862.46;17768.000; 2044.000;    0.000
 862.60;13460.000; 1900.000;    0.000
 862.75;16928.000; 2612.000;    0.000
 862.89;14256.000; 2796.000;    0.000
 863.04;11188.000; 1880.000;    0.000
 863.18;13204.000; 1912.000;    0.000
 863.33;13008.000; 2628.000;    0.000
 863.47;15392.000; 2732.000;    0.000
 863.62; 9508.000; 1936.000;    0.000
 863.76;10960.000; 1908.000;    0.000
 863.90;18956.000; 2600.000;    0.000
 864.05;17240.000; 2616.000;    0.000
 864.19;20080.000; 2108.000;    0.000
 864.34;10324.000; 1852.000;    0.000
 864.48;13252.000; 2500.000;    0.000
 864.63; 9524.000; 2412.000;    0.000
 864.77;12732.000; 1956.000;    0.000
 864.91;16556.000; 1944.000;    0.000
 865.06;13140.000; 2152.000;    0.000
 865.20;20664.000; 2440.000;    0.000
 865.35;13724.000; 1916.000;    0.000
 865.49;13460.000; 1900.000;    0.000
 865.64;14232.000; 2212.000;    0.000
 865.78;12592.000; 2792.000;    0.000
 865.92; 9868.000; 1852.000;    0.000
 866.07;17672.000; 1912.000;    0.000
 866.21;17136.000; 2308.000;    0.000
 866.36;23020.000; 2740.000;    0.000
 866.50;14972.000; 1848.000;    0.000
 866.65;21512.000; 2012.000;    0.000
 866.79;11524.000; 2552.000;    0.000
 866.93;12104.000; 2580.000;    0.000
 867.08;10884.000; 1832.000;    0.000
 867.22;23152.000; 2008.000;    0.000
 867.37;15352.000; 2728.000;    0.000
 867.51;16488.000; 2684.000;    0.000
 867.65;13716.000; 2072.000;    0.000
 867.80;18800.000; 1912.000;    0.000
 867.94;13912.000; 2248.000;    0.000
 868.09;15412.000; 2116.000;    0.000
 868.23;13344.000; 1980.000;    0.000
 868.37;10776.000; 1944.000;    0.000
 868.52;10764.000; 2256.000;    0.000
 868.66;13428.000; 2596.000;    0.000
 868.81;10220.000; 1884.000;    0.000
 868.95;17780.000; 1872.000;    0.000
 869.09;12136.000; 2536.000;    0.000
 869.24;18052.000; 3140.000;    0.000
 869.38;17908.000; 1952.000;    0.000
 869.53;13500.000; 1868.000;    0.000
 869.67;11364.000; 2164.000;    0.000
 869.81;16540.000; 2316.000;    0.000
 869.96;16448.000; 1892.000;    0.000
 870.10;18904.000; 2024.000;    0.000
 870.25;12388.000; 2676.000;    0.000
 870.39;13336.000; 2492.000;    0.000
 870.53;11100.000; 1912.000;    0.000
 870.68;11596.000; 1744.000;    0.000
 870.82;11264.000; 2348.000;    0.000
 870.97;13068.000; 2400.000;    0.000
 871.11;18640.000; 1972.000;    0.000
 871.25;13348.000; 1840.000;    0.000
 871.40;15680.000; 2604.000;    0.000
 871.54;21084.000; 2620.000;    0.000
 871.68;10940.000; 1788.000;    0.000
 871.83;11176.000; 1780.000;    0.000
 871.97;11664.000; 2544.000;    0.000
 872.12;15544.000; 2988.000;    0.000
 872.26;11376.000; 1948.000;    0.000
 872.40;10988.000; 1900.000;    0.000
 872.55;11200.000; 2496.000;    0.000
 872.69;14916.000; 2680.000;    0.000
 872.83;11272.000; 1944.000;    0.000
 872.98;12108.000; 1824.000;    0.000
 873.12;11472.000; 2248.000;    0.000
 873.27;19876.000; 2432.000;    0.000
 873.41;14004.000; 1988.000;    0.000
 873.55;18676.000; 1916.000;    0.000
 873.70;16068.000; 2440.000;    0.000
 873.84;16284.000; 2388.000;    0.000
 873.98;12380.000; 1848.000;    0.000
 874.13;17692.000; 1912.000;    0.000
 874.27;14852.000; 2372.000;    0.000
 874.41;14792.000; 2552.000;    0.000
 874.56;25652.000; 2072.000;    0.000
 874.70; 9544.000; 1808.000;    0.000
 874.85;22696.000; 2776.000;    0.000
 874.99;15216.000; 2176.000;    0.000
 875.13; 9764.000; 1784.000;    0.000
 875.28;12636.000; 1800.000;    0.000
 875.42;21436.000; 2516.000;    0.000
 875.56;18516.000; 2512.000;    0.000
 875.71; 9064.000; 1876.000;    0.000
 875.85;20056.000; 2080.000;    0.000
 875.99;13656.000; 2368.000;    0.000
 876.14;11848.000; 2388.000;    0.000
 876.28;20112.000; 2020.000;    0.000
 876.42; 7392.000; 1844.000;    0.000
 876.57;19524.000; 2264.000;    0.000
 876.71;14920.000; 2632.000;    0.000
 876.85;15728.000; 1944.000;    0.000
 877.00; 6816.000; 1844.000;    0.000
 877.14; 9260.000; 2280.000;    0.000
 877.28;19512.000; 2440.000;    0.000
 877.43;13208.000; 1868.000;    0.000
 877.57;13592.000; 1876.000;    0.000
 877.71;11532.000; 2872.000;    0.000
 877.86;16396.000; 2548.000;    0.000
 878.00;11196.000; 1900.000;    0.000
 878.14;10492.000; 1864.000;    0.000
 878.29;13084.000; 2432.000;    0.000
 878.43;22340.000; 2700.000;    0.000
 878.57;12052.000; 1920.000;    0.000
 878.72;12876.000; 1752.000;    0.000
 878.86;17648.000; 2456.000;    0.000
 879.00;12956.000; 2492.000;    0.000
 879.15;11688.000; 1920.000;    0.000
 879.29;11392.000; 1812.000;    0.000
 879.43;11320.000; 2456.000;    0.000
 879.58;13052.000; 2264.000;    0.000
 879.72;15400.000; 1948.000;    0.000
 879.86;16120.000; 1852.000;    0.000
 880.01;23772.000; 2836.000;    0.000
 880.15;16788.000; 2552.000;    0.000
 880.29;15808.000; 2064.000;    0.000
 880.44;11260.000; 1812.000;    0.000
 880.58;10920.000; 2264.000;    0.000
 880.72;18364.000; 2548.000;    0.000
 880.87;16916.000; 1960.000;    0.000
 881.01; 7820.000; 1832.000;    0.000
 881.15;13984.000; 2540.000;    0.000
 881.29;17016.000; 2592.000;    0.000
 881.44; 9764.000; 1932.000;    0.000
 881.58;14644.000; 1816.000;    0.000
 881.72;11876.000; 2412.000;    0.000
 881.87;15672.000; 2576.000;    0.000
 882.01;15756.000; 1892.000;    0.000
 882.15;11696.000; 1836.000;    0.000
 882.30;13056.000; 2452.000;    0.000
 882.44;14140.000; 2724.000;    0.000
 882.58; 6256.000; 1728.000;    0.000
 882.73;21356.000; 1964.000;    0.000
 882.87;13456.000; 2292.000;    0.000
 883.01;15884.000; 2908.000;    0.000
 883.15;12140.000; 1880.000;    0.000
 883.30;11752.000; 1820.000;    0.000
 883.44;16000.000; 2724.000;    0.000
 883.58;15372.000; 2536.000;    0.000
 883.73;16320.000; 1912.000;    0.000
 883.87;14764.000; 1964.000;    0.000
 884.01;13280.000; 2376.000;    0.000
 884.15;17512.000; 2524.000;    0.000
 884.30;20684.000; 2056.000;    0.000
 884.44;14864.000; 1868.000;    0.000
 884.58;16636.000; 2320.000;    0.000
 884.73;17500.000; 2632.000;    0.000
 884.87;10496.000; 1916.000;    0.000
 885.01;18920.000; 1920.000;    0.000
 885.15;17060.000; 2360.000;    0.000
 885.30;16920.000; 2712.000;    0.000
 885.44;13920.000; 1904.000;    0.000
 885.58;14372.000; 1852.000;    0.000
 885.73;13556.000; 2640.000;    0.000
 885.87;14260.000; 2532.000;    0.000
 886.01; 9624.000; 1828.000;    0.000
 886.15;20236.000; 1908.000;    0.000
 886.30;15368.000; 2344.000;    0.000
 886.44;14056.000; 2388.000;    0.000
 886.58;10960.000; 1840.000;    0.000
 886.72;14652.000; 1764.000;    0.000
 886.87;11328.000; 2180.000;    0.000
 887.01;16236.000; 2684.000;    0.000
 887.15;11904.000; 1952.000;    0.000
 887.29;14776.000; 1852.000;    0.000
 887.44;12696.000; 2544.000;    0.000
 887.58;18552.000; 2696.000;    0.000
 887.72; 9868.000; 1856.000;    0.000
 887.87;12652.000; 1820.000;    0.000
 888.01;14800.000; 2408.000;    0.000
 888.15;18088.000; 2516.000;    0.000
 888.29;25124.000; 2092.000;    0.000
 888.44;17020.000; 1884.000;    0.000
 888.58;14664.000; 2220.000;    0.000
 888.72;14656.000; 2524.000;    0.000
 888.86;18648.000; 2112.000;    0.000
 889.01;23256.000; 2060.000;    0.000
 889.15;17864.000; 2384.000;    0.000
 889.29;15176.000; 2632.000;    0.000
 889.43;11724.000; 1896.000;    0.000
 889.58;14548.000; 1928.000;    0.000
 889.72;15176.000; 2360.000;    0.000
 889.86;17148.000; 2852.000;    0.000
 890.00;13800.000; 1848.000;    0.000
 890.15;14020.000; 1888.000;    0.000
 890.29; 9808.000; 2424.000;    0.000
 890.43;14296.000; 2680.000;    0.000
 890.57;14992.000; 1936.000;    0.000
 890.72;12268.000; 1808.000;    0.000
 890.86;15628.000; 2532.000;    0.000
 891.00;12020.000; 2388.000;    0.000
 891.14;16736.000; 1892.000;    0.000
 891.28;17064.000; 2028.000;    0.000
 891.43;12352.000; 2568.000;    0.000
 891.57;11704.000; 2376.000;    0.000
 891.71;13624.000; 1880.000;    0.000
 891.85;18940.000; 1908.000;    0.000
 892.00;15464.000; 2660.000;    0.000
 892.14;14940.000; 2636.000;    0.000
 892.28;17212.000; 2072.000;    0.000
 892.42;14788.000; 1936.000;    0.000
 892.57;14520.000; 2604.000;    0.000
 892.71;10752.000; 2492.000;    0.000
 892.85;15084.000; 2012.000;    0.000
 892.99;16968.000; 1904.000;    0.000
 893.13;14336.000; 2796.000;    0.000
 893.28;13324.000; 2364.000;    0.000
 893.42;10552.000; 1816.000;    0.000
 893.56;12436.000; 1968.000;    0.000
 893.70;11292.000; 2156.000;    0.000
 893.84;20212.000; 2864.000;    0.000
 893.99;11876.000; 1984.000;    0.000
 894.13;16576.000; 2020.000;    0.000
 894.27;10972.000; 2188.000;    0.000
 894.41;16804.000; 2520.000;    0.000
 894.56; 9964.000; 1988.000;    0.000
 894.70;16688.000; 1948.000;    0.000
 894.84;13904.000; 2564.000;    0.000
 894.98;15956.000; 2708.000;    0.000
 895.12;13388.000; 2036.000;    0.000
 895.27;10688.000; 1856.000;    0.000
 895.41;15664.000; 2560.000;    0.000
 895.55;11508.000; 2300.000;    0.000
 895.69;12280.000; 1908.000;    0.000
 895.83;19948.000; 1928.000;    0.000
 895.98;11232.000; 2420.000;    0.000
 896.12;15992.000; 2396.000;    0.000
 896.26;18912.000; 2100.000;    0.000
 896.40;16796.000; 1972.000;    0.000
 896.54;12696.000; 2260.000;    0.000
 896.69;12180.000; 2240.000;    0.000
 896.83; 8952.000; 1932.000;    0.000
 896.97;10256.000; 1804.000;    0.000
 897.11;16720.000; 2728.000;    0.000
 897.25;21004.000; 2320.000;    0.000
 897.39;10680.000; 1856.000;    0.000
 897.54;15520.000; 1932.000;    0.000
 897.68;19384.000; 2396.000;    0.000
 897.82;15384.000; 2352.000;    0.000
 897.96;13028.000; 1888.000;    0.000
 898.10;13956.000; 1864.000;    0.000
 898.25;12600.000; 2588.000;    0.000
 898.39;11208.000; 2396.000;    0.000
 898.53;14140.000; 1896.000;    0.000
 898.67;13488.000; 1912.000;    0.000
 898.81;12708.000; 2680.000;    0.000
 898.95;16492.000; 2812.000;    0.000
 899.10;15392.000; 2064.000;    0.000
 899.24;16356.000; 2024.000;    0.000
 899.38;14632.000; 2296.000;    0.000
 899.52;12060.000; 2436.000;    0.000
 899.66;16088.000; 2012.000;    0.000
 899.81;16668.000; 2000.000;    0.000
 899.95;17788.000; 2496.000;    0.000
 900.09;11092.000; 2236.000;    0.000
 900.23;13660.000; 1976.000;    0.000
 900.37; 9292.000; 1832.000;    0.000
 900.51;10636.000; 2416.000;    0.000
 900.65;18184.000; 2664.000;    0.000
 900.80;12060.000; 1848.000;    0.000
 900.94;11436.000; 1940.000;    0.000
 901.08;11660.000; 2436.000;    0.000
 901.22;13364.000; 2624.000;    0.000
 901.36;20012.000; 2012.000;    0.000
 901.50;18232.000; 1960.000;    0.000
 901.65; 9776.000; 2256.000;    0.000
 901.79;12448.000; 2608.000;    0.000
 901.93;13844.000; 1940.000;    0.000
 902.07;15488.000; 1900.000;    0.000
 902.21;11676.000; 2168.000;    0.000
 902.35;18820.000; 2596.000;    0.000
 902.50;20620.000; 1988.000;    0.000
 902.64;14748.000; 1924.000;    0.000
 902.78;15716.000; 2376.000;    0.000
 902.92;15044.000; 2428.000;    0.000
 903.06; 9656.000; 2024.000;    0.000
 903.20;14660.000; 1984.000;    0.000
 903.34;13160.000; 2216.000;    0.000
 903.49;11064.000; 2360.000;    0.000
 903.63;13300.000; 1956.000;    0.000
 903.77; 8760.000; 2028.000;    0.000
 903.91;12648.000; 2660.000;    0.000
 904.05;14816.000; 2536.000;    0.000
 904.19;14428.000; 1784.000;    0.000
 904.33;13580.000; 1780.000;    0.000
 904.47;11116.000; 2420.000;    0.000
 904.62;16636.000; 2256.000;    0.000
 904.76;13608.000; 1976.000;    0.000
 904.90;22424.000; 2096.000;    0.000
 905.04;16440.000; 2472.000;    0.000
 905.18;10308.000; 2380.000;    0.000
 905.32;17032.000; 1972.000;    0.000
 905.46;10484.000; 1912.000;    0.000
 905.60;15892.000; 2788.000;    0.000
 905.75;13104.000; 2752.000;    0.000
 905.89; 9016.000; 1904.000;    0.000
 906.03; 9616.000; 1864.000;    0.000
 906.17;13064.000; 2504.000;    0.000
 906.31;14844.000; 2760.000;    0.000
 906.45;10456.000; 1892.000;    0.000
 906.59;10988.000; 1968.000;    0.000
 906.73;14540.000; 2424.000;    0.000
 906.88;13876.000; 2432.000;    0.000
 907.02;11824.000; 1868.000;    0.000
 907.16;11564.000; 1864.000;    0.000
 907.30;10896.000; 2320.000;    0.000
 907.44;13280.000; 2412.000;    0.000
 907.58;20524.000; 2052.000;    0.000
 907.72;15580.000; 1924.000;    0.000
 907.86;12864.000; 2300.000;    0.000
 908.00;12332.000; 2704.000;    0.000
 908.15;12308.000; 1968.000;    0.000
 908.29;12664.000; 1948.000;    0.000
 908.43;14604.000; 2284.000;    0.000
 908.57;15852.000; 2404.000;    0.000
 908.71;14196.000; 1988.000;    0.000
 908.85;17600.000; 1916.000;    0.000
 908.99;16144.000; 2552.000;    0.000
 909.13;11052.000; 2484.000;    0.000
 909.27;11560.000; 1928.000;    0.000
 909.41;18408.000; 2004.000;    0.000
 909.56;17224.000; 2388.000;    0.000
 909.70;14740.000; 2580.000;    0.000
 909.84; 9760.000; 2012.000;    0.000
 909.98;13036.000; 1932.000;    0.000
 910.12;10256.000; 2264.000;    0.000
 910.26;18064.000; 2768.000;    0.000
 910.40;10360.000; 1864.000;    0.000
 910.54;15836.000; 1996.000;    0.000
 910.68;14808.000; 2740.000;    0.000
 910.82;17340.000; 2712.000;    0.000
 910.96;11024.000; 1940.000;    0.000
 911.10;12300.000; 1896.000;    0.000
 911.25;19004.000; 2504.000;    0.000
 911.39;12024.000; 2592.000;    0.000
 911.53;13652.000; 1948.000;    0.000
 911.67;13588.000; 1888.000;    0.000
 911.81; 9092.000; 2208.000;    0.000
 911.95;15784.000; 2644.000;    0.000
 912.09; 8072.000; 1788.000;    0.000
 912.23;14048.000; 2032.000;    0.000
 912.37;17788.000; 2332.000;    0.000
 912.51;11580.000; 2352.000;    0.000
 912.65;20556.000; 2128.000;    0.000
 912.79;13112.000; 1960.000;    0.000
 912.93;13236.000; 2488.000;    0.000
 913.08;11008.000; 2672.000;    0.000
 913.22;11480.000; 1976.000;    0.000
 913.36;16612.000; 2056.000;    0.000
 913.50;21056.000; 2700.000;    0.000
 913.64;11724.000; 2540.000;    0.000
 913.78;14896.000; 1932.000;    0.000
 913.92;11992.000; 1888.000;    0.000
 914.06;16016.000; 2340.000;    0.000
 914.20;15168.000; 2432.000;    0.000
 914.34;11568.000; 1928.000;    0.000
 914.48; 9932.000; 1888.000;    0.000
 914.62; 8148.000; 2620.000;    0.000
 914.76;14952.000; 2444.000;    0.000
 914.90;11768.000; 1964.000;    0.000
 915.04;11956.000; 1932.000;    0.000
 915.18;15300.000; 2376.000;    0.000
 915.32;10656.000; 2656.000;    0.000
 915.46; 8692.000; 2012.000;    0.000
 915.61;14808.000; 1960.000;    0.000
 915.75;10668.000; 2508.000;    0.000
 915.89;10832.000; 2492.000;    0.000
 916.03;18640.000; 2084.000;    0.000
 916.17;12176.000; 1960.000;    0.000
 916.31;10736.000; 2492.000;    0.000
 916.45;12260.000; 2568.000;    0.000
 916.59; 9832.000; 1864.000;    0.000
 916.73;15176.000; 1924.000;    0.000
 916.87;10840.000; 2116.000;    0.000
 917.01;14780.000; 2348.000;    0.000
 917.15;10512.000; 1956.000;    0.000
 917.29;12312.000; 1820.000;    0.000
 917.43;11988.000; 2272.000;    0.000
 917.57;12912.000; 2452.000;    0.000
 917.71;11924.000; 2040.000;    0.000
 917.85; 9268.000; 1928.000;    0.000
 917.99;12568.000; 2896.000;    0.000
 918.13;13352.000; 2496.000;    0.000
 918.27;10848.000; 1920.000;    0.000
 918.41;18764.000; 1952.000;    0.000
 918.55;16132.000; 2312.000;    0.000
 918.69;13820.000; 2596.000;    0.000
 918.83;14816.000; 1932.000;    0.000
 918.97;17172.000; 1924.000;    0.000
 919.11;11304.000; 2348.000;    0.000
 919.25;10972.000; 2196.000;    0.000
 919.39;10412.000; 1988.000;    0.000
 919.53;12352.000; 2036.000;    0.000
 919.67;12748.000; 2428.000;    0.000
 919.81;11272.000; 2500.000;    0.000
 919.95;25876.000; 2132.000;    0.000
 920.09;17048.000; 1984.000;    0.000
 920.23; 9992.000; 2552.000;    0.000
 920.37;17252.000; 2876.000;    0.000
 920.51;17928.000; 1988.000;    0.000
 920.65;17516.000; 2032.000;    0.000
 920.79;18112.000; 2640.000;    0.000
 920.93; 9724.000; 2492.000;    0.000
 921.07;13332.000; 1944.000;    0.000
 921.21;14452.000; 1932.000;    0.000
 921.35;10212.000; 2412.000;    0.000
 921.49;12304.000; 2476.000;    0.000
 921.63;18284.000; 2060.000;    0.000
 921.77;18664.000; 1976.000;    0.000
 921.91;10008.000; 2052.000;    0.000
 922.05;14024.000; 2644.000;    0.000
 922.19;12692.000; 2016.000;    0.000
 922.33; 9336.000; 1960.000;    0.000
 922.47;14340.000; 2724.000;    0.000
 922.61;14744.000; 2740.000;    0.000
 922.75;14968.000; 2052.000;    0.000
 922.89;14972.000; 1972.000;    0.000
 923.03;10976.000; 2504.000;    0.000
 923.17;12860.000; 2312.000;    0.000
 923.31;15704.000; 2052.000;    0.000
 923.45;13228.000; 1940.000;    0.000
 923.59;20236.000; 2508.000;    0.000
 923.73; 9372.000; 2740.000;    0.000
 923.87;13164.000; 2020.000;    0.000
 924.01;15496.000; 1888.000;    0.000
 924.15;12688.000; 2604.000;    0.000
 924.29;11748.000; 2788.000;    0.000
 924.43;12316.000; 1964.000;    0.000
 924.57;12100.000; 1896.000;    0.000
 924.71;14828.000; 2316.000;    0.000
 924.85;17864.000; 2516.000;    0.000
 924.99;17280.000; 1972.000;    0.000
 925.13; 7756.000; 1932.000;    0.000
 925.27;17160.000; 2320.000;    0.000
 925.41;14608.000; 2492.000;    0.000
 925.55; 8692.000; 1924.000;    0.000
 925.69;13904.000; 1996.000;    0.000
 925.83;12548.000; 2264.000;    0.000
 925.97;12932.000; 2404.000;    0.000
 926.11;11456.000; 1944.000;    0.000
 926.25;15520.000; 1952.000;    0.000
 926.39;12248.000; 2712.000;    0.000
 926.53;11652.000; 2344.000;    0.000
 926.67;13260.000; 1932.000;    0.000
 926.81; 7464.000; 1936.000;    0.000
 926.95;11596.000; 2352.000;    0.000
 927.09;12028.000; 2452.000;    0.000
 927.23;10096.000; 1976.000;    0.000
 927.36;18892.000; 2016.000;    0.000
 927.50;10676.000; 2176.000;    0.000
 927.64; 7456.000; 2268.000;    0.000
 927.78; 6860.000; 1872.000;    0.000
 927.92;10820.000; 1932.000;    0.000
 928.06;12536.000; 2436.000;    0.000
 928.20;19612.000; 2480.000;    0.000
 928.34;20476.000; 2156.000;    0.000
 928.48;14088.000; 2020.000;    0.000
 928.62;19724.000; 2584.000;    0.000
 928.76;19200.000; 2964.000;    0.000
 928.90;19652.000; 2044.000;    0.000
 929.04;12704.000; 2004.000;    0.000
 929.18;10536.000; 2268.000;    0.000
 929.32; 8828.000; 2360.000;    0.000
 929.46;16204.000; 1952.000;    0.000
 929.60;12796.000; 1836.000;    0.000
 929.74; 7780.000; 2492.000;    0.000
 929.87;17652.000; 2456.000;    0.000
 930.01; 7216.000; 1912.000;    0.000
 930.15; 8600.000; 1856.000;    0.000
 930.29;11496.000; 2188.000;    0.000
 930.43;15076.000; 2388.000;    0.000
 930.57;14512.000; 2184.000;    0.000
 930.71;12296.000; 1844.000;    0.000
 930.85;11284.000; 2304.000;    0.000
 930.99;11948.000; 2560.000;    0.000
 931.13; 5724.000; 1900.000;    0.000
 931.27;14680.000; 2052.000;    0.000
 931.41;10976.000; 2404.000;    0.000
 931.55;18584.000; 2732.000;    0.000
 931.68; 8292.000; 1836.000;    0.000
 931.82;13228.000; 1916.000;    0.000
 931.96;14172.000; 2580.000;    0.000
 932.10;18244.000; 2660.000;    0.000
 932.24;11964.000; 2092.000;    0.000
 932.38;10828.000; 1960.000;    0.000
 932.52;14016.000; 2580.000;    0.000
 932.66; 9880.000; 2716.000;    0.000
 932.80;13820.000; 2000.000;    0.000
 932.94;15344.000; 2032.000;    0.000
 933.08;10664.000; 2232.000;    0.000
 933.22;11036.000; 2868.000;    0.000
 933.35;10612.000; 2032.000;    0.000
 933.49;12660.000; 2040.000;    0.000
 933.63;14632.000; 2396.000;    0.000
 933.77;20080.000; 2864.000;    0.000
 933.91;15332.000; 1992.000;    0.000
 934.05;18204.000; 2048.000;    0.000
 934.19;12956.000; 2544.000;    0.000
 934.33;18644.000; 2644.000;    0.000
 934.47; 9412.000; 1876.000;    0.000
 934.61;10104.000; 2000.000;    0.000
 934.74; 8020.000; 2280.000;    0.000
 934.88;12696.000; 2612.000;    0.000
 935.02; 9104.000; 1896.000;    0.000
 935.16;15660.000; 1984.000;    0.000
 935.30;11892.000; 2644.000;    0.000
 935.44;16988.000; 2588.000;    0.000
 935.58; 9188.000; 1820.000;    0.000
 935.72;18964.000; 2072.000;    0.000
 935.86;11444.000; 2536.000;    0.000
 935.99; 8460.000; 2664.000;    0.000
 936.13; 8808.000; 1856.000;    0.000
 936.27;14940.000; 2048.000;    0.000
 936.41;12480.000; 2328.000;    0.000
 936.55;25740.000; 2744.000;    0.000
 936.69; 9200.000; 1924.000;    0.000
 936.83; 8024.000; 1808.000;    0.000
 936.97;12312.000; 2428.000;    0.000
 937.10;11368.000; 2488.000;    0.000
 937.24;11888.000; 2012.000;    0.000
 937.38;11500.000; 1948.000;    0.000
 937.52;10656.000; 2284.000;    0.000
 937.66;33264.000; 3264.000;    0.000
 937.80;11240.000; 1980.000;    0.000
 937.94;13704.000; 1868.000;    0.000
 938.08;17792.000; 2552.000;    0.000
 938.21;15616.000; 2700.000;    0.000
 938.35;11948.000; 1988.000;    0.000
 938.49;12388.000; 1936.000;    0.000
 938.63;18684.000; 2552.000;    0.000
 938.77;15344.000; 2416.000;    0.000
 938.91;19204.000; 2144.000;    0.000
 939.05;15064.000; 2080.000;    0.000
 939.18;11564.000; 2524.000;    0.000
 939.32;16296.000; 2468.000;    0.000
 939.46;16404.000; 1972.000;    0.000
 939.60;13528.000; 1888.000;    0.000
 939.74;14180.000; 2296.000;    0.000
 939.88;20112.000; 2896.000;    0.000
 940.02;12692.000; 1916.000;    0.000
 940.15;14744.000; 1960.000;    0.000
 940.29;17144.000; 2980.000;    0.000
 940.43;19340.000; 2500.000;    0.000
 940.57;13444.000; 1972.000;    0.000
 940.71;10812.000; 1884.000;    0.000
 940.85;21708.000; 2920.000;    0.000
 940.98;12820.000; 2432.000;    0.000
 941.12; 8988.000; 1952.000;    0.000
 941.26;16348.000; 2092.000;    0.000
 941.40;17676.000; 2548.000;    0.000
 941.54;10588.000; 2384.000;    0.000
 941.68; 9980.000; 1880.000;    0.000
 941.82;14400.000; 1980.000;    0.000
 941.95;17724.000; 2436.000;    0.000
 942.09;10408.000; 2368.000;    0.000
 942.23;12036.000; 1896.000;    0.000
 942.37;17652.000; 2012.000;    0.000
 942.51;15532.000; 2684.000;    0.000
 942.65;13700.000; 2416.000;    0.000
 942.78;10996.000; 2036.000;    0.000
 942.92;12980.000; 1944.000;    0.000
 943.06;14404.000; 2476.000;    0.000
 943.20;15060.000; 2280.000;    0.000
 943.34;15252.000; 2080.000;    0.000
 943.47;14288.000; 2080.000;    0.000
 943.61;11844.000; 2388.000;    0.000
 943.75;21940.000; 2956.000;    0.000
 943.89;10436.000; 1872.000;    0.000
 944.03; 7756.000; 1812.000;    0.000
 944.17;10540.000; 2204.000;    0.000
 944.30;14024.000; 2556.000;    0.000
 944.44;15332.000; 2056.000;    0.000
 944.58;14796.000; 1960.000;    0.000
 944.72;14888.000; 2400.000;    0.000
 944.86;12320.000; 2564.000;    0.000
 944.99;12304.000; 1868.000;    0.000
 945.13; 6296.000; 2004.000;    0.000
 945.27;12168.000; 2776.000;    0.000
 945.41;25868.000; 2540.000;    0.000
 945.55; 7912.000; 1896.000;    0.000
 945.68;11288.000; 2020.000;    0.000
 945.82;13960.000; 2512.000;    0.000
 945.96;22764.000; 2884.000;    0.000
 946.10;14416.000; 2088.000;    0.000
 946.24;19688.000; 2080.000;    0.000
 946.37;15428.000; 2688.000;    0.000
 946.51;16768.000; 2884.000;    0.000
 946.65; 8220.000; 1880.000;    0.000
 946.79;16268.000; 2060.000;    0.000
 946.93;15484.000; 2452.000;    0.000
 947.06;11188.000; 2704.000;    0.000
 947.20;11360.000; 1964.000;    0.000
 947.34;12116.000; 1884.000;    0.000
 947.48;15840.000; 2260.000;    0.000
 947.62;16712.000; 2456.000;    0.000
 947.75;10616.000; 1876.000;    0.000
 947.89;16384.000; 1916.000;    0.000
 948.03;14512.000; 2564.000;    0.000
 948.17;13324.000; 2496.000;    0.000
 948.31;16712.000; 1964.000;    0.000
 948.44;15680.000; 1952.000;    0.000
 948.58;10756.000; 2300.000;    0.000
 948.72;13572.000; 2472.000;    0.000
 948.86;12136.000; 2052.000;    0.000
 948.99;11072.000; 1904.000;    0.000
 949.13;16396.000; 2652.000;    0.000
 949.27;12712.000; 2864.000;    0.000
 949.41;14536.000; 1936.000;    0.000
 949.55;10524.000; 1960.000;    0.000
 949.68; 9364.000; 2624.000;    0.000
 949.82;14752.000; 2784.000;    0.000
 949.96;13320.000; 2016.000;    0.000
 950.10;16072.000; 2068.000;    0.000
 950.23;19064.000; 2556.000;    0.000
 950.37;16256.000; 2592.000;    0.000
 950.51;11740.000; 2180.000;    0.000
 950.65;11636.000; 1948.000;    0.000
 950.78; 6912.000; 2456.000;    0.000
 950.92;11020.000; 2572.000;    0.000
 951.06; 7408.000; 2008.000;    0.000
 951.20;11136.000; 1948.000;    0.000
 951.33;16052.000; 2396.000;    0.000
 951.47;16088.000; 2912.000;    0.000
 951.61;10512.000; 2080.000;    0.000
 951.75;14064.000; 1952.000;    0.000
 951.89; 8996.000; 2288.000;    0.000
 952.02;13192.000; 2184.000;    0.000
 952.16; 8252.000; 2032.000;    0.000
 952.30;17156.000; 1972.000;    0.000
 952.44;11356.000; 3048.000;    0.000
 952.57;14128.000; 2460.000;    0.000
 952.71; 7096.000; 1912.000;    0.000
 952.85;11776.000; 1976.000;    0.000
 952.99;11808.000; 2284.000;    0.000
 953.12;13232.000; 2584.000;    0.000
 953.26; 8788.000; 1884.000;    0.000
 953.40;16356.000; 2068.000;    0.000
 953.53;12880.000; 2604.000;    0.000
 953.67;18668.000; 2920.000;    0.000
 953.81;15984.000; 1964.000;    0.000
 953.95;10348.000; 1944.000;    0.000
 954.08;14732.000; 2324.000;    0.000
 954.22;11096.000; 2660.000;    0.000
 954.36;18756.000; 2060.000;    0.000
 954.50;13996.000; 1968.000;    0.000
 954.63;14992.000; 2620.000;    0.000
 954.77;12516.000; 2520.000;    0.000
 954.91; 9592.000; 1976.000;    0.000
 955.05;13964.000; 1948.000;    0.000
 955.18;14364.000; 2704.000;    0.000
 955.32;22696.000; 2636.000;    0.000
 955.46; 8988.000; 1912.000;    0.000
 955.59;12416.000; 1960.000;    0.000
 955.73;15968.000; 2672.000;    0.000
 955.87; 9672.000; 2516.000;    0.000
 956.01;12212.000; 1956.000;    0.000
 956.14;13720.000; 2040.000;    0.000
 956.28;12708.000; 2836.000;    0.000
 956.42;14220.000; 2712.000;    0.000
 956.55;12140.000; 2024.000;    0.000
 956.69;12164.000; 1900.000;    0.000
 956.83;12208.000; 2344.000;    0.000
 956.97;24400.000; 2792.000;    0.000
 957.10;10608.000; 1920.000;    0.000
 957.24;22136.000; 2164.000;    0.000
 957.38;13216.000; 2232.000;    0.000
 957.51;15968.000; 2536.000;    0.000
 957.65; 9812.000; 1936.000;    0.000
 957.79;12072.000; 1988.000;    0.000
 957.93;11328.000; 2212.000;    0.000
 958.06;10580.000; 2560.000;    0.000
 958.20;13400.000; 1944.000;    0.000
 958.34;10140.000; 1948.000;    0.000
 958.47; 9540.000; 2408.000;    0.000
 958.61;11680.000; 2728.000;    0.000
 958.75;11172.000; 1984.000;    0.000
 958.88;14000.000; 1900.000;    0.000
 959.02;14788.000; 2708.000;    0.000
 959.16;15352.000; 3156.000;    0.000
 959.30; 9888.000; 2016.000;    0.000
 959.43;11892.000; 1848.000;    0.000
 959.57; 9204.000; 2340.000;    0.000
 959.71;15344.000; 2404.000;    0.000
 959.84; 8556.000; 1904.000;    0.000
 959.98; 8160.000; 1880.000;    0.000
 960.12;10888.000; 2308.000;    0.000
 960.25;11736.000; 2508.000;    0.000
 960.39; 5372.000; 1880.000;    0.000
 960.53;11672.000; 1836.000;    0.000
 960.66;11728.000; 2464.000;    0.000
 960.80;10636.000; 2248.000;    0.000
 960.94; 8864.000; 1888.000;    0.000
 961.07;13000.000; 1916.000;    0.000
 961.21;15552.000; 2448.000;    0.000
 961.35;12924.000; 2708.000;    0.000
 961.48;12052.000; 1900.000;    0.000
 961.62;10288.000; 1956.000;    0.000
 961.76;13512.000; 2368.000;    0.000
 961.89;16716.000; 2588.000;    0.000
 962.03;12696.000; 2032.000;    0.000
 962.17;16924.000; 2012.000;    0.000
 962.30;18572.000; 2644.000;    0.000
 962.44;11800.000; 2464.000;    0.000
 962.58;15864.000; 1944.000;    0.000
 962.71;11344.000; 1768.000;    0.000
 962.85;11756.000; 2340.000;    0.000
 962.99;15572.000; 2228.000;    0.000
 963.12;11576.000; 1944.000;    0.000
 963.26;15204.000; 1956.000;    0.000
 963.40; 8848.000; 2588.000;    0.000
 963.53;11036.000; 2528.000;    0.000
 963.67; 8176.000; 1924.000;    0.000
 963.81; 9580.000; 1836.000;    0.000
 963.94;11576.000; 2144.000;    0.000
 964.08;10648.000; 2272.000;    0.000
 964.22;10268.000; 1876.000;    0.000
 964.35;10968.000; 1928.000;    0.000
 964.49;20568.000; 2532.000;    0.000
 964.63;15656.000; 2608.000;    0.000
 964.76;13776.000; 1980.000;    0.000
 964.90; 8472.000; 1912.000;    0.000
 965.04;13132.000; 2640.000;    0.000
 965.17;13044.000; 2424.000;    0.000
 965.31;15308.000; 2092.000;    0.000
 965.44;11788.000; 1952.000;    0.000
 965.58;12600.000; 2340.000;    0.000
 965.72;11076.000; 2544.000;    0.000
 965.85;12568.000; 1976.000;    0.000
 965.99;10372.000; 1872.000;    0.000
 966.13;11744.000; 2508.000;    0.000
 966.26;18768.000; 2280.000;    0.000
 966.40;12228.000; 2004.000;    0.000
 966.54;11792.000; 1900.000;    0.000
 966.67; 7780.000; 2208.000;    0.000
 966.81;16844.000; 2724.000;    0.000
 966.94;14744.000; 1968.000;    0.000
 967.08;13040.000; 2056.000;    0.000
 967.22;16984.000; 2284.000;    0.000
 967.35; 8752.000; 2584.000;    0.000
 967.49;18476.000; 2104.000;    0.000
 967.63;13848.000; 1892.000;    0.000
 967.76;17036.000; 2472.000;    0.000
 967.90;18620.000; 2464.000;    0.000
 968.03;12760.000; 1908.000;    0.000
 968.17;12368.000; 1964.000;    0.000
 968.31;15852.000; 2444.000;    0.000
 968.44;20972.000; 2544.000;    0.000
 968.58; 9928.000; 1876.000;    0.000
 968.71; 8996.000; 1852.000;    0.000
 968.85;18316.000; 2676.000;    0.000
 968.99; 9876.000; 2388.000;    0.000
 969.12;12568.000; 2048.000;    0.000
 969.26;14204.000; 1948.000;    0.000
 969.40; 9940.000; 2372.000;    0.000
 969.53; 9936.000; 2472.000;    0.000
 969.67; 9572.000; 1872.000;    0.000
 969.80;11936.000; 1844.000;    0.000
 969.94; 9564.000; 2292.000;    0.000
 970.08;13608.000; 2296.000;    0.000
 970.21;12116.000; 1884.000;    0.000
 970.35; 7680.000; 1876.000;    0.000
 970.48;10104.000; 2448.000;    0.000
 970.62;13444.000; 2508.000;    0.000
 970.76;20716.000; 2132.000;    0.000
 970.89;12416.000; 1844.000;    0.000
 971.03;13224.000; 2344.000;    0.000
 971.16;17636.000; 2296.000;    0.000
 971.30;10008.000; 1976.000;    0.000
 971.43; 9044.000; 1920.000;    0.000
 971.57;16016.000; 2552.000;    0.000
 971.71;11528.000; 2512.000;    0.000
 971.84;17244.000; 1956.000;    0.000
 971.98;10736.000; 2008.000;    0.000
 972.11;17616.000; 2440.000;    0.000
 972.25;14760.000; 2292.000;    0.000
 972.39;13344.000; 1872.000;    0.000
 972.52;10468.000; 1896.000;    0.000
 972.66;11976.000; 2392.000;    0.000
 972.79;12660.000; 2420.000;    0.000
 972.93;22044.000; 2152.000;    0.000
 973.06;15128.000; 1956.000;    0.000
 973.20;17120.000; 2584.000;    0.000
 973.34;17868.000; 2244.000;    0.000
 973.47; 8552.000; 1952.000;    0.000
 973.61;11808.000; 2008.000;    0.000
 973.74;11892.000; 2468.000;    0.000
 973.88;10456.000; 2424.000;    0.000
 974.01;12460.000; 1996.000;    0.000
 974.15;16868.000; 1968.000;    0.000
 974.29;15872.000; 2480.000;    0.000
 974.42;15296.000; 2484.000;    0.000
 974.56;14376.000; 2052.000;    0.000
 974.69; 6012.000; 1740.000;    0.000
 974.83;13616.000; 2232.000;    0.000
 974.96;14552.000; 2296.000;    0.000
 975.10;14548.000; 1992.000;    0.000
 975.24; 8616.000; 1804.000;    0.000
 975.37;13008.000; 2516.000;    0.000
 975.51;11512.000; 2504.000;    0.000
 975.64;10344.000; 1932.000;    0.000
 975.78;17300.000; 2028.000;    0.000
 975.91;12860.000; 2200.000;    0.000
 976.05;10308.000; 2284.000;    0.000
 976.18;10772.000; 1920.000;    0.000
 976.32;14452.000; 1960.000;    0.000
 976.45;16024.000; 2240.000;    0.000
 976.59;16240.000; 2608.000;    0.000
 976.73;15164.000; 2024.000;    0.000
 976.86;12720.000; 1940.000;    0.000
 977.00;14728.000; 2504.000;    0.000
 977.13;17452.000; 2740.000;    0.000
 977.27;11380.000; 1928.000;    0.000
 977.40;17064.000; 2028.000;    0.000
 977.54;13056.000; 2376.000;    0.000
 977.67;10792.000; 2360.000;    0.000
 977.81; 7272.000; 1884.000;    0.000
 977.94;11508.000; 1908.000;    0.000
 978.08;16464.000; 2480.000;    0.000
 978.21;14724.000; 2612.000;    0.000
 978.35;17804.000; 2012.000;    0.000
 978.49; 9112.000; 1872.000;    0.000
 978.62; 9896.000; 2568.000;    0.000
 978.76;14252.000; 2368.000;    0.000
 978.89; 9456.000; 1984.000;    0.000
 979.03; 8284.000; 1876.000;    0.000
 979.16;11708.000; 2456.000;    0.000
 979.30;15448.000; 2744.000;    0.000
 979.43;14992.000; 2052.000;    0.000
 979.57;12744.000; 1992.000;    0.000
 979.70;10508.000; 2088.000;    0.000
 979.84;14776.000; 2212.000;    0.000
 979.97; 8336.000; 1864.000;    0.000
 980.11;10724.000; 1876.000;    0.000
 980.24;14016.000; 2788.000;    0.000
 980.38;15700.000; 2756.000;    0.000
 980.51;14060.000; 1952.000;    0.000
 980.65;18676.000; 2072.000;    0.000
 980.78;14164.000; 2428.000;    0.000
 980.92;15712.000; 2488.000;    0.000
 981.05; 8496.000; 1880.000;    0.000
 981.19; 7784.000; 1936.000;    0.000
 981.32;12148.000; 2280.000;    0.000
 981.46;17948.000; 2580.000;    0.000
 981.59;10500.000; 1952.000;    0.000
 981.73;10456.000; 1920.000;    0.000
 981.86;11836.000; 2280.000;    0.000
 982.00;10940.000; 2316.000;    0.000
 982.13;16020.000; 1932.000;    0.000
 982.27;17928.000; 2052.000;    0.000
 982.40;16576.000; 2556.000;    0.000
 982.54;18436.000; 2508.000;    0.000
 982.67;10440.000; 1944.000;    0.000
 982.81;14164.000; 2020.000;    0.000
 982.94;12328.000; 2456.000;    0.000
 983.08;11608.000; 2564.000;    0.000
 983.21;12596.000; 1996.000;    0.000
 983.35;11824.000; 1988.000;    0.000
 983.48;15168.000; 2800.000;    0.000
 983.62;18192.000; 2476.000;    0.000
 983.75;11796.000; 1992.000;    0.000
 983.89;21236.000; 2128.000;    0.000
 984.02;16896.000; 2672.000;    0.000
 984.16;14556.000; 2392.000;    0.000
 984.29;12688.000; 2112.000;    0.000
 984.43;15936.000; 1896.000;    0.000
 984.56;13248.000; 2528.000;    0.000
 984.70;17920.000; 2968.000;    0.000
 984.83;22148.000; 2152.000;    0.000
 984.97;10704.000; 1812.000;    0.000
 985.10;11300.000; 2684.000;    0.000
 985.23;15856.000; 2732.000;    0.000
 985.37; 8648.000; 1836.000;    0.000
 985.50;13808.000; 1948.000;    0.000
 985.64;17024.000; 2576.000;    0.000
 985.77;10824.000; 2516.000;    0.000
 985.91; 9336.000; 1912.000;    0.000
 986.04;16560.000; 2000.000;    0.000
 986.18;15084.000; 2544.000;    0.000
 986.31;13072.000; 2736.000;    0.000
 986.45; 9760.000; 1992.000;    0.000
 986.58;13628.000; 2000.000;    0.000
 986.72;15184.000; 2568.000;    0.000
 986.85;11404.000; 2064.000;    0.000
 986.98; 9524.000; 1920.000;    0.000
 987.12;11444.000; 1984.000;    0.000
 987.25;11980.000; 2564.000;    0.000
 987.39; 9696.000; 2356.000;    0.000
 987.52;18056.000; 2044.000;    0.000
 987.66;16224.000; 1944.000;    0.000
 987.79;14892.000; 2508.000;    0.000
 987.93;16588.000; 2864.000;    0.000
 988.06;11172.000; 1996.000;    0.000
 988.19;15264.000; 1964.000;    0.000
 988.33;14744.000; 2252.000;    0.000
 988.46;16860.000; 2528.000;    0.000
 988.60;17228.000; 2092.000;    0.000
 988.73;10004.000; 1916.000;    0.000
 988.87;11160.000; 2532.000;    0.000
 989.00; 8036.000; 2432.000;    0.000
 989.14;10900.000; 1948.000;    0.000
 989.27;13036.000; 1932.000;    0.000
 989.40;10012.000; 2512.000;    0.000
 989.54; 8704.000; 2556.000;    0.000
 989.67;10572.000; 1888.000;    0.000
 989.81;14908.000; 1920.000;    0.000
 989.94;13072.000; 2292.000;    0.000
 990.08;18960.000; 2504.000;    0.000
 990.21;17744.000; 1944.000;    0.000
 990.34; 9052.000; 1900.000;    0.000
 990.48; 9904.000; 2396.000;    0.000
 990.61;15016.000; 2448.000;    0.000
 990.75;15812.000; 2124.000;    0.000
 990.88;22116.000; 1968.000;    0.000
 991.02;10660.000; 2004.000;    0.000
 991.15;10904.000; 2960.000;    0.000
 991.28; 8820.000; 1868.000;    0.000
 991.42;13304.000; 1856.000;    0.000
 991.55;10592.000; 2316.000;    0.000
 991.69;10608.000; 2292.000;    0.000
 991.82;13668.000; 1976.000;    0.000
 991.95;11732.000; 1904.000;    0.000
 992.09; 8844.000; 2156.000;    0.000
 992.22;15596.000; 2680.000;    0.000
 992.36;10564.000; 1992.000;    0.000
 992.49;13196.000; 1860.000;    0.000
 992.62;12948.000; 2512.000;    0.000
 992.76;10576.000; 2348.000;    0.000
 992.89; 7736.000; 1924.000;    0.000
 993.03; 7956.000; 1988.000;    0.000
 993.16;18688.000; 2156.000;    0.000
 993.29;20180.000; 2260.000;    0.000
 993.43; 8236.000; 2024.000;    0.000
 993.56;12380.000; 2028.000;    0.000
 993.70;11284.000; 2816.000;    0.000
 993.83;13068.000; 2580.000;    0.000
 993.96;17660.000; 2100.000;    0.000
 994.10; 8544.000; 1844.000;    0.000
 994.23; 9508.000; 2524.000;    0.000
 994.37;15884.000; 2456.000;    0.000
 994.50;14872.000; 1976.000;    0.000
 994.63;10980.000; 2020.000;    0.000
 994.77; 7560.000; 2408.000;    0.000
 994.90;18652.000; 2744.000;    0.000
 995.04;22036.000; 2136.000;    0.000
 995.17;10608.000; 1892.000;    0.000
 995.30;22700.000; 2512.000;    0.000
 995.44;16148.000; 2292.000;    0.000
 995.57;12360.000; 2036.000;    0.000
 995.70;10248.000; 1912.000;    0.000
 995.84; 9432.000; 2608.000;    0.000
 995.97;16128.000; 2436.000;    0.000
 996.11;13808.000; 1908.000;    0.000
 996.24;13540.000; 1864.000;    0.000
 996.37;16308.000; 2548.000;    0.000
 996.51;12260.000; 2356.000;    0.000
 996.64;20364.000; 2132.000;    0.000
 996.77;10772.000; 1876.000;    0.000
 996.91; 8928.000; 2320.000;    0.000
 997.04;16296.000; 2488.000;    0.000
 997.18;12160.000; 1848.000;    0.000
 997.31; 9792.000; 1864.000;    0.000
 997.44;16448.000; 2432.000;    0.000
 997.58;12844.000; 2600.000;    0.000
 997.71;10052.000; 1916.000;    0.000
 997.84;14828.000; 1960.000;    0.000
 997.98;11536.000; 2592.000;    0.000
 998.11;18292.000; 2332.000;    0.000
 998.24;20528.000; 2132.000;    0.000
 998.38;12572.000; 1972.000;    0.000
 998.51;16132.000; 2328.000;    0.000
 998.64;15400.000; 2712.000;    0.000
 998.78; 9512.000; 1820.000;    0.000
 998.91; 9988.000; 1972.000;    0.000
 999.04;16676.000; 2372.000;    0.000
 999.18;16076.000; 2512.000;    0.000
 999.31; 9508.000; 1920.000;    0.000
 999.45;11584.000; 2048.000;    0.000
 999.58;20508.000; 2496.000;    0.000
 999.71;15616.000; 2576.000;    0.000
 999.85;16032.000; 2064.000;    0.000
 999.98;12356.000; 1940.000;    0.000
1000.11;14748.000;    0.000;    0.000
1000.25;10892.000;    0.000;    0.000
1000.38;15440.000;    0.000;    0.000
1000.51;12996.000;    0.000;    0.000
1000.65;15320.000;    0.000;    0.000
1000.78;12360.000;    0.000;    0.000
1000.91;10884.000;    0.000;    0.000
1001.05;10188.000;    0.000;    0.000
1001.18;11112.000;    0.000;    0.000
1001.31;13940.000;    0.000;    0.000
1001.45;15168.000;    0.000;    0.000
1001.58;14400.000;    0.000;    0.000
1001.71;19140.000;    0.000;    0.000
1001.85;18336.000;    0.000;    0.000
1001.98; 8812.000;    0.000;    0.000
1002.11;15068.000;    0.000;    0.000
1002.24;16072.000;    0.000;    0.000
1002.38;13916.000;    0.000;    0.000
1002.51;13524.000;    0.000;    0.000
1002.64; 6892.000;    0.000;    0.000
1002.78;14100.000;    0.000;    0.000
1002.91; 8128.000;    0.000;    0.000
1003.04;12792.000;    0.000;    0.000
1003.18;10108.000;    0.000;    0.000
1003.31;15072.000;    0.000;    0.000
1003.44;10228.000;    0.000;    0.000
1003.58;14308.000;    0.000;    0.000
1003.71; 8936.000;    0.000;    0.000
1003.84; 7584.000;    0.000;    0.000
1003.98;11272.000;    0.000;    0.000
1004.11; 9220.000;    0.000;    0.000
1004.24;10792.000;    0.000;    0.000
1004.37;16704.000;    0.000;    0.000
1004.51;10248.000;    0.000;    0.000
1004.64;16648.000;    0.000;    0.000
1004.77;11220.000;    0.000;    0.000
1004.91; 8572.000;    0.000;    0.000
1005.04; 8964.000;    0.000;    0.000
1005.17;14492.000;    0.000;    0.000
1005.30;12620.000;    0.000;    0.000
1005.44;19180.000;    0.000;    0.000
1005.57; 9604.000;    0.000;    0.000
1005.70;12392.000;    0.000;    0.000
1005.84;22480.000;    0.000;    0.000
1005.97;11988.000;    0.000;    0.000
1006.10;14900.000;    0.000;    0.000
1006.23;11104.000;    0.000;    0.000
1006.37;13576.000;    0.000;    0.000
1006.50;17260.000;    0.000;    0.000
1006.63;16684.000;    0.000;    0.000
1006.77;10980.000;    0.000;    0.000
1006.90;16064.000;    0.000;    0.000
1007.03;13236.000;    0.000;    0.000
1007.16;13632.000;    0.000;    0.000
1007.30;15192.000;    0.000;    0.000
1007.43;14900.000;    0.000;    0.000
1007.56;14432.000;    0.000;    0.000
1007.70;17476.000;    0.000;    0.000
1007.83; 7532.000;    0.000;    0.000
1007.96;12668.000;    0.000;    0.000
1008.09;18068.000;    0.000;    0.000
1008.23;13496.000;    0.000;    0.000
1008.36; 6796.000;    0.000;    0.000
1008.49;17064.000;    0.000;    0.000
1008.62;20268.000;    0.000;    0.000
1008.76;13356.000;    0.000;    0.000
1008.89;18508.000;    0.000;    0.000
1009.02;15692.000;    0.000;    0.000
1009.15;12172.000;    0.000;    0.000
1009.29;21808.000;    0.000;    0.000
1009.42; 9796.000;    0.000;    0.000
1009.55;16512.000;    0.000;    0.000
1009.68;16188.000;    0.000;    0.000
1009.82;12400.000;    0.000;    0.000
1009.95; 9256.000;    0.000;    0.000
1010.08; 7740.000;    0.000;    0.000
1010.21;11704.000;    0.000;    0.000
1010.35;18416.000;    0.000;    0.000
1010.48;14376.000;    0.000;    0.000
1010.61;18256.000;    0.000;    0.000
1010.74; 7272.000;    0.000;    0.000
1010.88;22336.000;    0.000;    0.000
1011.01;12632.000;    0.000;    0.000
1011.14; 7732.000;    0.000;    0.000
1011.27;17960.000;    0.000;    0.000
1011.41; 9868.000;    0.000;    0.000
1011.54; 9868.000;    0.000;    0.000
1011.67;13436.000;    0.000;    0.000
1011.80;16916.000;    0.000;    0.000
1011.94;14348.000;    0.000;    0.000
1012.07; 9024.000;    0.000;    0.000
1012.20;18816.000;    0.000;    0.000
1012.33;10960.000;    0.000;    0.000
1012.46;13048.000;    0.000;    0.000
1012.60;15384.000;    0.000;    0.000
1012.73;10876.000;    0.000;    0.000
1012.86;16008.000;    0.000;    0.000
1012.99;13404.000;    0.000;    0.000
1013.13;14200.000;    0.000;    0.000
1013.26;24420.000;    0.000;    0.000
1013.39;10360.000;    0.000;    0.000
1013.52;14616.000;    0.000;    0.000
1013.65;14916.000;    0.000;    0.000
1013.79;14320.000;    0.000;    0.000
1013.92;14344.000;    0.000;    0.000
1014.05;13624.000;    0.000;    0.000
1014.18;21788.000;    0.000;    0.000
1014.31;17984.000;    0.000;    0.000
1014.45;12164.000;    0.000;    0.000
1014.58;16780.000;    0.000;    0.000
1014.71;16452.000;    0.000;    0.000
1014.84;15204.000;    0.000;    0.000
1014.98;20864.000;    0.000;    0.000
1015.11;15544.000;    0.000;    0.000
1015.24; 8852.000;    0.000;    0.000
1015.37; 9844.000;    0.000;    0.000
1015.50;13848.000;    0.000;    0.000
1015.64;12752.000;    0.000;    0.000
1015.77;10556.000;    0.000;    0.000
1015.90;10728.000;    0.000;    0.000
1016.03;14720.000;    0.000;    0.000
1016.16;15128.000;    0.000;    0.000
1016.29;11560.000;    0.000;    0.000
1016.43;12424.000;    0.000;    0.000
1016.56;11200.000;    0.000;    0.000
1016.69;19520.000;    0.000;    0.000
1016.82;19816.000;    0.000;    0.000
1016.95;12116.000;    0.000;    0.000
1017.09;17584.000;    0.000;    0.000
1017.22;11912.000;    0.000;    0.000
1017.35;16240.000;    0.000;    0.000
1017.48;15488.000;    0.000;    0.000
1017.61;15500.000;    0.000;    0.000
1017.75;10828.000;    0.000;    0.000
1017.88;16268.000;    0.000;    0.000
1018.01;11156.000;    0.000;    0.000
1018.14;13056.000;    0.000;    0.000
1018.27;21048.000;    0.000;    0.000
1018.40;10508.000;    0.000;    0.000
1018.54; 8404.000;    0.000;    0.000
1018.67; 9620.000;    0.000;    0.000
1018.80;18184.000;    0.000;    0.000
1018.93;15104.000;    0.000;    0.000
1019.06; 6760.000;    0.000;    0.000
1019.19;12360.000;    0.000;    0.000
1019.33;11384.000;    0.000;    0.000
1019.46;13612.000;    0.000;    0.000
1019.59; 7332.000;    0.000;    0.000
1019.72;13288.000;    0.000;    0.000
1019.85;12744.000;    0.000;    0.000
1019.98;12204.000;    0.000;    0.000
1020.12;10548.000;    0.000;    0.000
1020.25;11944.000;    0.000;    0.000
1020.38;10912.000;    0.000;    0.000
1020.51;12032.000;    0.000;    0.000
1020.64;12776.000;    0.000;    0.000
1020.77;14216.000;    0.000;    0.000
1020.90;12556.000;    0.000;    0.000
1021.04; 8000.000;    0.000;    0.000
1021.17; 7176.000;    0.000;    0.000
1021.30;15272.000;    0.000;    0.000
1021.43;12736.000;    0.000;    0.000
1021.56;14376.000;    0.000;    0.000
1021.69;14380.000;    0.000;    0.000
1021.82;12716.000;    0.000;    0.000
1021.96;17536.000;    0.000;    0.000
1022.09;11280.000;    0.000;    0.000
1022.22;10152.000;    0.000;    0.000
1022.35;18544.000;    0.000;    0.000
1022.48;10200.000;    0.000;    0.000
1022.61; 9332.000;    0.000;    0.000
1022.74;13784.000;    0.000;    0.000
1022.87;10308.000;    0.000;    0.000
1023.01; 8616.000;    0.000;    0.000
1023.14; 8988.000;    0.000;    0.000
1023.27;16432.000;    0.000;    0.000
1023.40;12904.000;    0.000;    0.000
1023.53;16340.000;    0.000;    0.000
1023.66;13712.000;    0.000;    0.000
1023.79;17088.000;    0.000;    0.000
1023.92;16824.000;    0.000;    0.000
1024.06;11028.000;    0.000;    0.000
1024.19; 7392.000;    0.000;    0.000
1024.32; 9568.000;    0.000;    0.000
1024.45; 7484.000;    0.000;    0.000
1024.58;13012.000;    0.000;    0.000
1024.71; 9540.000;    0.000;    0.000
1024.84;13040.000;    0.000;    0.000
1024.97;12904.000;    0.000;    0.000
1025.11;16104.000;    0.000;    0.000
1025.24;11736.000;    0.000;    0.000
1025.37;15624.000;    0.000;    0.000
1025.50;12544.000;    0.000;    0.000
1025.63; 9052.000;    0.000;    0.000
1025.76;12884.000;    0.000;    0.000
1025.89;11284.000;    0.000;    0.000
1026.02;14076.000;    0.000;    0.000
1026.15;10440.000;    0.000;    0.000
1026.28;15728.000;    0.000;    0.000
1026.42;15256.000;    0.000;    0.000
1026.55;15504.000;    0.000;    0.000
1026.68;14624.000;    0.000;    0.000
1026.81;15180.000;    0.000;    0.000
1026.94;13232.000;    0.000;    0.000
1027.07;18084.000;    0.000;    0.000
1027.20;18208.000;    0.000;    0.000
1027.33;16372.000;    0.000;    0.000
1027.46;12684.000;    0.000;    0.000
1027.59;21940.000;    0.000;    0.000
1027.72;16088.000;    0.000;    0.000
1027.86;18336.000;    0.000;    0.000
1027.99;12464.000;    0.000;    0.000
1028.12;13316.000;    0.000;    0.000
1028.25;14872.000;    0.000;    0.000
1028.38;17208.000;    0.000;    0.000
1028.51; 8032.000;    0.000;    0.000
1028.64; 8088.000;    0.000;    0.000
1028.77;10560.000;    0.000;    0.000
1028.90; 8736.000;    0.000;    0.000
1029.03;10092.000;    0.000;    0.000
1029.16;10736.000;    0.000;    0.000
1029.29;14520.000;    0.000;    0.000
1029.42;13456.000;    0.000;    0.000
1029.56; 8064.000;    0.000;    0.000
1029.69;11560.000;    0.000;    0.000
1029.82;15064.000;    0.000;    0.000
1029.95; 8544.000;    0.000;    0.000
1030.08;13208.000;    0.000;    0.000
1030.21; 9716.000;    0.000;    0.000
1030.34;10108.000;    0.000;    0.000
1030.47;12540.000;    0.000;    0.000
1030.60;15464.000;    0.000;    0.000
1030.73;16088.000;    0.000;    0.000
1030.86;13064.000;    0.000;    0.000
1030.99;10392.000;    0.000;    0.000
1031.12;10228.000;    0.000;    0.000
1031.25;12472.000;    0.000;    0.000
1031.38; 7612.000;    0.000;    0.000
1031.51; 7928.000;    0.000;    0.000
1031.64;23336.000;    0.000;    0.000
1031.78;13312.000;    0.000;    0.000
1031.91;16460.000;    0.000;    0.000
1032.04;18556.000;    0.000;    0.000
1032.17;11064.000;    0.000;    0.000
1032.30;17204.000;    0.000;    0.000
1032.43;13464.000;    0.000;    0.000
1032.56;11180.000;    0.000;    0.000
1032.69;11168.000;    0.000;    0.000
1032.82;20248.000;    0.000;    0.000
1032.95;16240.000;    0.000;    0.000
1033.08;11160.000;    0.000;    0.000
1033.21;13436.000;    0.000;    0.000
1033.34;10092.000;    0.000;    0.000
1033.47;10628.000;    0.000;    0.000
1033.60;10736.000;    0.000;    0.000
1033.73;16376.000;    0.000;    0.000
1033.86;14248.000;    0.000;    0.000
1033.99;18348.000;    0.000;    0.000
1034.12; 9376.000;    0.000;    0.000
1034.25;10872.000;    0.000;    0.000
1034.38;19908.000;    0.000;    0.000
1034.51;11752.000;    0.000;    0.000
1034.64;17272.000;    0.000;    0.000
1034.77;16072.000;    0.000;    0.000
1034.90;20144.000;    0.000;    0.000
1035.03;11540.000;    0.000;    0.000
1035.16;11072.000;    0.000;    0.000
1035.29;16292.000;    0.000;    0.000
1035.42;14128.000;    0.000;    0.000
1035.55;15824.000;    0.000;    0.000
1035.68;11476.000;    0.000;    0.000
1035.81;18692.000;    0.000;    0.000
1035.94; 9744.000;    0.000;    0.000
1036.07;14076.000;    0.000;    0.000
1036.20;14644.000;    0.000;    0.000
1036.33;12568.000;    0.000;    0.000
1036.46; 7740.000;    0.000;    0.000
1036.59;16312.000;    0.000;    0.000
1036.72;12512.000;    0.000;    0.000
1036.85;13044.000;    0.000;    0.000
1036.98; 8772.000;    0.000;    0.000
1037.11;13692.000;    0.000;    0.000
1037.24;10332.000;    0.000;    0.000
1037.37;15300.000;    0.000;    0.000
1037.50;10648.000;    0.000;    0.000
1037.63;14872.000;    0.000;    0.000
1037.76; 7472.000;    0.000;    0.000
1037.89;10716.000;    0.000;    0.000
1038.02;17264.000;    0.000;    0.000
1038.15;18716.000;    0.000;    0.000
1038.28; 9944.000;    0.000;    0.000
1038.41;11952.000;    0.000;    0.000
1038.54;13400.000;    0.000;    0.000
1038.67;13736.000;    0.000;    0.000
1038.80;14960.000;    0.000;    0.000
1038.93;14784.000;    0.000;    0.000
1039.06;15308.000;    0.000;    0.000
1039.19;14272.000;    0.000;    0.000
1039.32;10772.000;    0.000;    0.000
1039.45;15276.000;    0.000;    0.000
1039.58;10552.000;    0.000;    0.000
1039.71;18780.000;    0.000;    0.000
1039.84;12216.000;    0.000;    0.000
1039.97; 9360.000;    0.000;    0.000
1040.10;14176.000;    0.000;    0.000
1040.23;14616.000;    0.000;    0.000
1040.36;12560.000;    0.000;    0.000
1040.49;23000.000;    0.000;    0.000
1040.62;16608.000;    0.000;    0.000
1040.75;13412.000;    0.000;    0.000
1040.88;20336.000;    0.000;    0.000
1041.01;19332.000;    0.000;    0.000
1041.14;14096.000;    0.000;    0.000
1041.27; 9960.000;    0.000;    0.000
1041.40; 9300.000;    0.000;    0.000
1041.53;19604.000;    0.000;    0.000
1041.65;14536.000;    0.000;    0.000
1041.78;13696.000;    0.000;    0.000
1041.91;11640.000;    0.000;    0.000
1042.04;13568.000;    0.000;    0.000
1042.17;15412.000;    0.000;    0.000
1042.30;13040.000;    0.000;    0.000
1042.43; 6532.000;    0.000;    0.000
1042.56;16512.000;    0.000;    0.000
1042.69;16020.000;    0.000;    0.000
1042.82;13196.000;    0.000;    0.000
1042.95;18432.000;    0.000;    0.000
1043.08;22404.000;    0.000;    0.000
1043.21;17012.000;    0.000;    0.000
1043.34;16280.000;    0.000;    0.000
1043.47;20076.000;    0.000;    0.000
1043.60;10512.000;    0.000;    0.000
1043.73;13224.000;    0.000;    0.000
1043.86;21592.000;    0.000;    0.000
1043.98;18664.000;    0.000;    0.000
1044.11;10720.000;    0.000;    0.000
1044.24;10384.000;    0.000;    0.000
1044.37;15672.000;    0.000;    0.000
1044.50;17768.000;    0.000;    0.000
1044.63;14480.000;    0.000;    0.000
1044.76;14332.000;    0.000;    0.000
1044.89;18008.000;    0.000;    0.000
1045.02;13116.000;    0.000;    0.000
1045.15; 9896.000;    0.000;    0.000
1045.28;21600.000;    0.000;    0.000
1045.41;16152.000;    0.000;    0.000
1045.54;14000.000;    0.000;    0.000
1045.66;13248.000;    0.000;    0.000
1045.79;16624.000;    0.000;    0.000
1045.92;15136.000;    0.000;    0.000
1046.05;20912.000;    0.000;    0.000
1046.18;13516.000;    0.000;    0.000
1046.31;14752.000;    0.000;    0.000
1046.44;21568.000;    0.000;    0.000
1046.57;11016.000;    0.000;    0.000
1046.70; 7684.000;    0.000;    0.000
1046.83;15624.000;    0.000;    0.000
1046.96;10996.000;    0.000;    0.000
1047.08;14856.000;    0.000;    0.000
1047.21;11408.000;    0.000;    0.000
1047.34;12180.000;    0.000;    0.000
1047.47;13112.000;    0.000;    0.000
1047.60;16340.000;    0.000;    0.000
1047.73;12188.000;    0.000;    0.000
1047.86;12560.000;    0.000;    0.000
1047.99;14840.000;    0.000;    0.000
1048.12;10404.000;    0.000;    0.000
1048.24;11876.000;    0.000;    0.000
1048.37;13508.000;    0.000;    0.000
1048.50;25168.000;    0.000;    0.000
1048.63;10100.000;    0.000;    0.000
1048.76;14144.000;    0.000;    0.000
1048.89;13852.000;    0.000;    0.000
1049.02;18280.000;    0.000;    0.000
1049.15;11404.000;    0.000;    0.000
1049.28;16840.000;    0.000;    0.000
1049.40;19680.000;    0.000;    0.000
1049.53;16676.000;    0.000;    0.000
1049.66;11824.000;    0.000;    0.000
1049.79;18200.000;    0.000;    0.000
1049.92;11608.000;    0.000;    0.000
1050.05;12164.000;    0.000;    0.000
1050.18;14596.000;    0.000;    0.000
1050.31;17964.000;    0.000;    0.000
1050.43;10200.000;    0.000;    0.000
1050.56;11128.000;    0.000;    0.000
1050.69;18152.000;    0.000;    0.000
1050.82;18720.000;    0.000;    0.000
1050.95;16112.000;    0.000;    0.000
1051.08;10960.000;    0.000;    0.000
1051.21;11960.000;    0.000;    0.000
1051.33;10380.000;    0.000;    0.000
1051.46;14020.000;    0.000;    0.000
1051.59;15768.000;    0.000;    0.000
1051.72;13820.000;    0.000;    0.000
1051.85;10972.000;    0.000;    0.000
1051.98;13356.000;    0.000;    0.000
1052.11;15428.000;    0.000;    0.000
1052.23;10452.000;    0.000;    0.000
1052.36;14652.000;    0.000;    0.000
1052.49;11964.000;    0.000;    0.000
1052.62;13452.000;    0.000;    0.000
1052.75;11400.000;    0.000;    0.000
1052.88;14452.000;    0.000;    0.000
1053.01; 9280.000;    0.000;    0.000
1053.13;22500.000;    0.000;    0.000
1053.26;15044.000;    0.000;    0.000
1053.39;12076.000;    0.000;    0.000
1053.52;16776.000;    0.000;    0.000
1053.65;15404.000;    0.000;    0.000
1053.78; 9408.000;    0.000;    0.000
1053.90;10112.000;    0.000;    0.000
1054.03;16428.000;    0.000;    0.000
1054.16;13052.000;    0.000;    0.000
1054.29;12300.000;    0.000;    0.000
1054.42;12900.000;    0.000;    0.000
1054.55;17548.000;    0.000;    0.000
1054.67;15624.000;    0.000;    0.000
1054.80;14040.000;    0.000;    0.000
1054.93;10508.000;    0.000;    0.000
1055.06;16264.000;    0.000;    0.000
1055.19;18420.000;    0.000;    0.000
1055.31;16288.000;    0.000;    0.000
1055.44; 7608.000;    0.000;    0.000
1055.57;15856.000;    0.000;    0.000
1055.70;13332.000;    0.000;    0.000
1055.83;10152.000;    0.000;    0.000
1055.96; 7380.000;    0.000;    0.000
1056.08;16112.000;    0.000;    0.000
1056.21;11032.000;    0.000;    0.000
1056.34;18164.000;    0.000;    0.000
1056.47;10876.000;    0.000;    0.000
1056.60;14188.000;    0.000;    0.000
1056.72;19056.000;    0.000;    0.000
1056.85;11696.000;    0.000;    0.000
1056.98;11516.000;    0.000;    0.000
1057.11;14104.000;    0.000;    0.000
1057.24;14144.000;    0.000;    0.000
1057.36;10916.000;    0.000;    0.000
1057.49; 9032.000;    0.000;    0.000
1057.62;14820.000;    0.000;    0.000
1057.75;16088.000;    0.000;    0.000
1057.88;16360.000;    0.000;    0.000
1058.00;17420.000;    0.000;    0.000
1058.13;14740.000;    0.000;    0.000
1058.26;15336.000;    0.000;    0.000
1058.39;15532.000;    0.000;    0.000
1058.52;12856.000;    0.000;    0.000
1058.64;15408.000;    0.000;    0.000
1058.77;19084.000;    0.000;    0.000
1058.90;14980.000;    0.000;    0.000
1059.03;12984.000;    0.000;    0.000
1059.16;16952.000;    0.000;    0.000
1059.28;22208.000;    0.000;    0.000
1059.41;14424.000;    0.000;    0.000
1059.54;18032.000;    0.000;    0.000
1059.67;12740.000;    0.000;    0.000
1059.79;12036.000;    0.000;    0.000
1059.92; 7740.000;    0.000;    0.000
1060.05;11036.000;    0.000;    0.000
1060.18;12928.000;    0.000;    0.000
1060.31;12660.000;    0.000;    0.000
1060.43;10448.000;    0.000;    0.000
1060.56;14724.000;    0.000;    0.000
1060.69;17988.000;    0.000;    0.000
1060.82; 8220.000;    0.000;    0.000
1060.94; 9308.000;    0.000;    0.000
1061.07;12700.000;    0.000;    0.000
1061.20;14232.000;    0.000;    0.000
1061.33;11788.000;    0.000;    0.000
1061.45;11564.000;    0.000;    0.000
1061.58;14476.000;    0.000;    0.000
1061.71;12952.000;    0.000;    0.000
1061.84;21328.000;    0.000;    0.000
1061.96;12640.000;    0.000;    0.000
1062.09;16392.000;    0.000;    0.000
1062.22;11272.000;    0.000;    0.000
1062.35;11036.000;    0.000;    0.000
1062.47; 9808.000;    0.000;    0.000
1062.60;13864.000;    0.000;    0.000
1062.73; 9640.000;    0.000;    0.000
1062.86;11116.000;    0.000;    0.000
1062.98;10572.000;    0.000;    0.000
1063.11;10088.000;    0.000;    0.000
1063.24;14460.000;    0.000;    0.000
1063.37;18024.000;    0.000;    0.000
1063.49;17944.000;    0.000;    0.000
1063.62; 9892.000;    0.000;    0.000
1063.75;19004.000;    0.000;    0.000
1063.88;13360.000;    0.000;    0.000
1064.00;13416.000;    0.000;    0.000
1064.13;12144.000;    0.000;    0.000
1064.26;17108.000;    0.000;    0.000
1064.39;15624.000;    0.000;    0.000
1064.51;12316.000;    0.000;    0.000
1064.64;17264.000;    0.000;    0.000
1064.77;16228.000;    0.000;    0.000
1064.89;15032.000;    0.000;    0.000
1065.02;12720.000;    0.000;    0.000
1065.15;11196.000;    0.000;    0.000
1065.28;10712.000;    0.000;    0.000
1065.40;11804.000;    0.000;    0.000
1065.53;12664.000;    0.000;    0.000
1065.66;11936.000;    0.000;    0.000
1065.78;12524.000;    0.000;    0.000
1065.91;16524.000;    0.000;    0.000
1066.04;15772.000;    0.000;    0.000
1066.17;19188.000;    0.000;    0.000
1066.29;17796.000;    0.000;    0.000
1066.42;13316.000;    0.000;    0.000
1066.55; 9436.000;    0.000;    0.000
1066.67;14164.000;    0.000;    0.000
1066.80;12984.000;    0.000;    0.000
1066.93;17572.000;    0.000;    0.000
1067.06;11364.000;    0.000;    0.000
1067.18;15932.000;    0.000;    0.000
1067.31;10668.000;    0.000;    0.000
1067.44;14468.000;    0.000;    0.000
1067.56; 8372.000;    0.000;    0.000
1067.69;11836.000;    0.000;    0.000
1067.82;14852.000;    0.000;    0.000
1067.94;14808.000;    0.000;    0.000
1068.07;12232.000;    0.000;    0.000
1068.20;12924.000;    0.000;    0.000
1068.33;14572.000;    0.000;    0.000
1068.45;13396.000;    0.000;    0.000
1068.58;11476.000;    0.000;    0.000
1068.71; 9876.000;    0.000;    0.000
1068.83;14368.000;    0.000;    0.000
1068.96;18532.000;    0.000;    0.000
1069.09;19456.000;    0.000;    0.000
1069.21;16504.000;    0.000;    0.000
1069.34; 9944.000;    0.000;    0.000
1069.47; 9452.000;    0.000;    0.000
1069.59;14160.000;    0.000;    0.000
1069.72;10584.000;    0.000;    0.000
1069.85;19140.000;    0.000;    0.000
1069.97;12004.000;    0.000;    0.000
1070.10;12752.000;    0.000;    0.000
1070.23;16116.000;    0.000;    0.000
1070.35;16816.000;    0.000;    0.000
1070.48;10376.000;    0.000;    0.000
1070.61;13604.000;    0.000;    0.000
1070.73;10048.000;    0.000;    0.000
1070.86;18592.000;    0.000;    0.000
1070.99;16132.000;    0.000;    0.000
1071.11;14368.000;    0.000;    0.000
1071.24;18248.000;    0.000;    0.000
1071.37;13040.000;    0.000;    0.000
1071.49;20100.000;    0.000;    0.000
1071.62;12300.000;    0.000;    0.000
1071.75;15844.000;    0.000;    0.000
1071.87;17068.000;    0.000;    0.000
1072.00;16768.000;    0.000;    0.000
1072.13;11068.000;    0.000;    0.000
1072.25;11760.000;    0.000;    0.000
1072.38;10872.000;    0.000;    0.000
1072.51;16644.000;    0.000;    0.000
1072.63;11204.000;    0.000;    0.000
1072.76;10164.000;    0.000;    0.000
1072.89; 9468.000;    0.000;    0.000
1073.01;15012.000;    0.000;    0.000
1073.14;13948.000;    0.000;    0.000
1073.27;14040.000;    0.000;    0.000
1073.39;24924.000;    0.000;    0.000
1073.52;12864.000;    0.000;    0.000
1073.64;18936.000;    0.000;    0.000
1073.77; 9424.000;    0.000;    0.000
1073.90;12284.000;    0.000;    0.000
1074.02;14656.000;    0.000;    0.000
1074.15;12380.000;    0.000;    0.000
1074.28;12928.000;    0.000;    0.000
1074.40;20200.000;    0.000;    0.000
1074.53;24980.000;    0.000;    0.000
1074.66;12760.000;    0.000;    0.000
1074.78;19140.000;    0.000;    0.000
1074.91;14608.000;    0.000;    0.000
1075.03;19148.000;    0.000;    0.000
1075.16;14264.000;    0.000;    0.000
1075.29;13964.000;    0.000;    0.000
1075.41;11844.000;    0.000;    0.000
1075.54;14212.000;    0.000;    0.000
1075.67; 9164.000;    0.000;    0.000
1075.79;13736.000;    0.000;    0.000
1075.92;14000.000;    0.000;    0.000
1076.04;17192.000;    0.000;    0.000

